Model,MDO3104
Firmware Version,1.30

Waveform Type,RF_FD
Point Format,Y
Horizontal Units,Hz
Horizontal Scale,2.8e+07
,
Sample Interval,373333
Record Length,751
Gating,0.133155792277% to 100.0%
Probe Attenuation,1
Vertical Units,dBm
Vertical Offset,0
Vertical Scale,10
Vertical Position,0
Center Frequency,1.4e+08
Span,2.8e+08
Reference Level,-15
Label,
FREQUENCY,FD NORM
0.000000000e+00,-62.6622
3.733333333e+05,-71.4889
7.466666667e+05,-84.1782
1.120000000e+06,-78.0387
1.493333333e+06,-67.5622
1.866666667e+06,-67.7438
2.240000000e+06,-71.1795
2.613333333e+06,-65.4798
2.986666667e+06,-69.2496
3.360000000e+06,-59.0265
3.733333333e+06,-60.4526
4.106666667e+06,-64.285
4.480000000e+06,-63.0146
4.853333333e+06,-75.2865
5.226666667e+06,-64.2289
5.600000000e+06,-65.8856
5.973333333e+06,-59.2013
6.346666667e+06,-64.3314
6.720000000e+06,-71.7232
7.093333333e+06,-69.289
7.466666667e+06,-68.4924
7.840000000e+06,-69.9467
8.213333333e+06,-72.4664
8.586666667e+06,-74.6361
8.960000000e+06,-70.8691
9.333333333e+06,-69.2717
9.706666667e+06,-67.68
1.008000000e+07,-72.3436
1.045333333e+07,-63.5917
1.082666667e+07,-65.6158
1.120000000e+07,-65.4282
1.157333333e+07,-66.9797
1.194666667e+07,-63.0492
1.232000000e+07,-63.9622
1.269333333e+07,-70.8195
1.306666667e+07,-71.6311
1.344000000e+07,-64.6487
1.381333333e+07,-63.611
1.418666667e+07,-66.5071
1.456000000e+07,-67.6599
1.493333333e+07,-65.9462
1.530666667e+07,-68.3892
1.568000000e+07,-71.24
1.605333333e+07,-67.302
1.642666667e+07,-64.5975
1.680000000e+07,-65.04
1.717333333e+07,-66.9704
1.754666667e+07,-66.1398
1.792000000e+07,-58.1967
1.829333333e+07,-61.4453
1.866666667e+07,-70.4454
1.904000000e+07,-70.9846
1.941333333e+07,-69.8632
1.978666667e+07,-70.308
2.016000000e+07,-70.0445
2.053333333e+07,-73.1345
2.090666667e+07,-70.494
2.128000000e+07,-66.7426
2.165333333e+07,-60.0035
2.202666667e+07,-59.4249
2.240000000e+07,-65.0916
2.277333333e+07,-69.2062
2.314666667e+07,-69.5265
2.352000000e+07,-66.3864
2.389333333e+07,-65.8075
2.426666667e+07,-71.3462
2.464000000e+07,-60.9741
2.501333333e+07,-54.2586
2.538666667e+07,-62.8395
2.576000000e+07,-71.7249
2.613333333e+07,-71.3415
2.650666667e+07,-68.9195
2.688000000e+07,-64.5075
2.725333333e+07,-63.2675
2.762666667e+07,-68.1272
2.800000000e+07,-71.0631
2.837333333e+07,-67.4181
2.874666667e+07,-68.9663
2.912000000e+07,-79.8921
2.949333333e+07,-65.6898
2.986666667e+07,-53.5027
3.024000000e+07,-55.0064
3.061333333e+07,-66.8704
3.098666667e+07,-72.828
3.136000000e+07,-72.3289
3.173333333e+07,-76.8447
3.210666667e+07,-72.5312
3.248000000e+07,-59.6215
3.285333333e+07,-58.5282
3.322666667e+07,-76.4855
3.360000000e+07,-78.7061
3.397333333e+07,-78.9932
3.434666667e+07,-79.6248
3.472000000e+07,-76.2608
3.509333333e+07,-60.148
3.546666667e+07,-57.086
3.584000000e+07,-47.0092
3.621333333e+07,-47.6482
3.658666667e+07,-79.1956
3.696000000e+07,-81.1885
3.733333333e+07,-74.4688
3.770666667e+07,-69.0665
3.808000000e+07,-59.3681
3.845333333e+07,-63.8013
3.882666667e+07,-74.9786
3.920000000e+07,-72.7106
3.957333333e+07,-72.223
3.994666667e+07,-75.4116
4.032000000e+07,-69.8811
4.069333333e+07,-58.8587
4.106666667e+07,-60.488
4.144000000e+07,-67.2335
4.181333333e+07,-53.8774
4.218666667e+07,-53.7727
4.256000000e+07,-68.1769
4.293333333e+07,-67.9497
4.330666667e+07,-61.1041
4.368000000e+07,-61.5627
4.405333333e+07,-62.6295
4.442666667e+07,-74.1652
4.480000000e+07,-71.2027
4.517333333e+07,-71.4272
4.554666667e+07,-75.8189
4.592000000e+07,-64.4227
4.629333333e+07,-59.3399
4.666666667e+07,-59.0108
4.704000000e+07,-69.7886
4.741333333e+07,-66.0159
4.778666667e+07,-38.4299
4.816000000e+07,-37.759
4.853333333e+07,-61.3581
4.890666667e+07,-61.4615
4.928000000e+07,-59.7536
4.965333333e+07,-66.9455
5.002666667e+07,-75.2204
5.040000000e+07,-76.7072
5.077333333e+07,-72.4022
5.114666667e+07,-70.069
5.152000000e+07,-60.1383
5.189333333e+07,-55.3964
5.226666667e+07,-63.3138
5.264000000e+07,-68.2634
5.301333333e+07,-76.9984
5.338666667e+07,-72.713
5.376000000e+07,-49.877
5.413333333e+07,-48.521
5.450666667e+07,-55.4785
5.488000000e+07,-58.3167
5.525333333e+07,-69.6333
5.562666667e+07,-70.3611
5.600000000e+07,-74.8957
5.637333333e+07,-71.6646
5.674666667e+07,-68.7291
5.712000000e+07,-53.1308
5.749333333e+07,-53.5991
5.786666667e+07,-73.344
5.824000000e+07,-77.4768
5.861333333e+07,-76.184
5.898666667e+07,-79.3941
5.936000000e+07,-71.695
5.973333333e+07,-39.3142
6.010666667e+07,-37.0199
6.048000000e+07,-56.4373
6.085333333e+07,-76.3652
6.122666667e+07,-73.6114
6.160000000e+07,-71.4728
6.197333333e+07,-71.2753
6.234666667e+07,-58.0131
6.272000000e+07,-51.948
6.309333333e+07,-63.338
6.346666667e+07,-69.0432
6.384000000e+07,-71.6899
6.421333333e+07,-70.5051
6.458666667e+07,-75.7842
6.496000000e+07,-66.5322
6.533333333e+07,-53.3127
6.570666667e+07,-47.9921
6.608000000e+07,-45.7122
6.645333333e+07,-60.619
6.682666667e+07,-71.9293
6.720000000e+07,-72.6874
6.757333333e+07,-69.1606
6.794666667e+07,-55.7066
6.832000000e+07,-57.4339
6.869333333e+07,-68.0159
6.906666667e+07,-67.5559
6.944000000e+07,-65.0655
6.981333333e+07,-67.4046
7.018666667e+07,-65.0701
7.056000000e+07,-57.4311
7.093333333e+07,-56.6609
7.130666667e+07,-62.3079
7.168000000e+07,-46.6939
7.205333333e+07,-42.063
7.242666667e+07,-57.4771
7.280000000e+07,-69.3631
7.317333333e+07,-60.1827
7.354666667e+07,-57.9955
7.392000000e+07,-59.1432
7.429333333e+07,-64.7058
7.466666667e+07,-66.5331
7.504000000e+07,-66.3747
7.541333333e+07,-69.2249
7.578666667e+07,-66.352
7.616000000e+07,-59.2173
7.653333333e+07,-56.863
7.690666667e+07,-64.4097
7.728000000e+07,-66.0464
7.765333333e+07,-56.4764
7.802666667e+07,-49.094
7.840000000e+07,-58.3053
7.877333333e+07,-59.6958
7.914666667e+07,-55.2918
7.952000000e+07,-61.0299
7.989333333e+07,-66.3099
8.026666667e+07,-68.3215
8.064000000e+07,-68.4176
8.101333333e+07,-69.5148
8.138666667e+07,-58.255
8.176000000e+07,-54.0755
8.213333333e+07,-55.293
8.250666667e+07,-68.2601
8.288000000e+07,-75.0109
8.325333333e+07,-64.8038
8.362666667e+07,-48.2315
8.400000000e+07,-40.0533
8.437333333e+07,-47.9679
8.474666667e+07,-54.0075
8.512000000e+07,-65.57
8.549333333e+07,-70.6209
8.586666667e+07,-70.1031
8.624000000e+07,-66.7527
8.661333333e+07,-64.8418
8.698666667e+07,-58.3717
8.736000000e+07,-53.552
8.773333333e+07,-63.7929
8.810666667e+07,-77.183
8.848000000e+07,-70.2669
8.885333333e+07,-67.0021
8.922666667e+07,-67.848
8.960000000e+07,-64.8195
8.997333333e+07,-58.6702
9.034666667e+07,-65.2532
9.072000000e+07,-74.4782
9.109333333e+07,-78.7527
9.146666667e+07,-81.9579
9.184000000e+07,-74.0209
9.221333333e+07,-72.197
9.258666667e+07,-53.5985
9.296000000e+07,-55.3066
9.333333333e+07,-67.7582
9.370666667e+07,-70.1945
9.408000000e+07,-72.7729
9.445333333e+07,-81.2035
9.482666667e+07,-71.8842
9.520000000e+07,-52.1571
9.557333333e+07,-51.7345
9.594666667e+07,-47.9263
9.632000000e+07,-53.1391
9.669333333e+07,-64.8711
9.706666667e+07,-71.3471
9.744000000e+07,-71.8984
9.781333333e+07,-56.3737
9.818666667e+07,-53.9181
9.856000000e+07,-63.6902
9.893333333e+07,-68.4365
9.930666667e+07,-66.2188
9.968000000e+07,-67.8288
1.000533333e+08,-71.5393
1.004266667e+08,-58.5944
1.008000000e+08,-51.9526
1.011733333e+08,-55.1528
1.015466667e+08,-61.1167
1.019200000e+08,-54.8551
1.022933333e+08,-56.5681
1.026666667e+08,-71.4519
1.030400000e+08,-65.5365
1.034133333e+08,-54.6923
1.037866667e+08,-55.0992
1.041600000e+08,-61.6698
1.045333333e+08,-68.1425
1.049066667e+08,-67.6795
1.052800000e+08,-67.1892
1.056533333e+08,-64.1941
1.060266667e+08,-54.2282
1.064000000e+08,-53.0356
1.067733333e+08,-55.487
1.071466667e+08,-64.459
1.075200000e+08,-64.3993
1.078933333e+08,-43.7677
1.082666667e+08,-46.0826
1.086400000e+08,-62.1369
1.090133333e+08,-54.6388
1.093866667e+08,-55.0822
1.097600000e+08,-62.8619
1.101333333e+08,-63.9965
1.105066667e+08,-70.458
1.108800000e+08,-68.5252
1.112533333e+08,-62.8827
1.116266667e+08,-52.9624
1.120000000e+08,-50.9862
1.123733333e+08,-61.7082
1.127466667e+08,-65.616
1.131200000e+08,-72.7406
1.134933333e+08,-69.2194
1.138666667e+08,-61.8004
1.142400000e+08,-59.1398
1.146133333e+08,-52.6768
1.149866667e+08,-61.0194
1.153600000e+08,-73.5844
1.157333333e+08,-72.0612
1.161066667e+08,-74.0891
1.164800000e+08,-69.6699
1.168533333e+08,-58.9574
1.172266667e+08,-49.1082
1.176000000e+08,-53.4633
1.179733333e+08,-66.966
1.183466667e+08,-73.8479
1.187200000e+08,-67.7519
1.190933333e+08,-68.1594
1.194666667e+08,-60.906
1.198400000e+08,-36.2978
1.202133333e+08,-37.0397
1.205866667e+08,-68.1178
1.209600000e+08,-70.3741
1.213333333e+08,-71.7415
1.217066667e+08,-75.6428
1.220800000e+08,-66.6718
1.224533333e+08,-50.456
1.228266667e+08,-48.8627
1.232000000e+08,-63.1607
1.235733333e+08,-66.5583
1.239466667e+08,-66.783
1.243200000e+08,-69.9615
1.246933333e+08,-65.4029
1.250666667e+08,-58.4595
1.254400000e+08,-51.4408
1.258133333e+08,-54.4283
1.261866667e+08,-54.1495
1.265600000e+08,-73.9838
1.269333333e+08,-74.7626
1.273066667e+08,-66.1666
1.276800000e+08,-61.9316
1.280533333e+08,-49.6397
1.284266667e+08,-53.1534
1.288000000e+08,-61.4855
1.291733333e+08,-65.688
1.295466667e+08,-69.4084
1.299200000e+08,-64.2596
1.302933333e+08,-62.6619
1.306666667e+08,-51.9574
1.310400000e+08,-52.622
1.314133333e+08,-60.4765
1.317866667e+08,-62.2519
1.321600000e+08,-61.4941
1.325333333e+08,-69.4739
1.329066667e+08,-64.3398
1.332800000e+08,-51.0745
1.336533333e+08,-50.5432
1.340266667e+08,-53.7503
1.344000000e+08,-62.4395
1.347733333e+08,-68.5012
1.351466667e+08,-64.6006
1.355200000e+08,-63.6383
1.358933333e+08,-60.2819
1.362666667e+08,-54.4404
1.366400000e+08,-54.0124
1.370133333e+08,-65.5241
1.373866667e+08,-70.3211
1.377600000e+08,-69.5046
1.381333333e+08,-63.7898
1.385066667e+08,-60.9083
1.388800000e+08,-52.5298
1.392533333e+08,-49.5922
1.396266667e+08,-58.5059
1.400000000e+08,-65.5954
1.403733333e+08,-64.8859
1.407466667e+08,-66.2269
1.411200000e+08,-68.0478
1.414933333e+08,-58.4546
1.418666667e+08,-52.2196
1.422400000e+08,-59.5617
1.426133333e+08,-73.1051
1.429866667e+08,-67.209
1.433600000e+08,-67.8681
1.437333333e+08,-48.7246
1.441066667e+08,-47.9505
1.444800000e+08,-47.9574
1.448533333e+08,-49.9119
1.452266667e+08,-66.0798
1.456000000e+08,-68.0388
1.459733333e+08,-69.1503
1.463466667e+08,-65.952
1.467200000e+08,-71.393
1.470933333e+08,-52.8976
1.474666667e+08,-52.3123
1.478400000e+08,-69.4113
1.482133333e+08,-68.6227
1.485866667e+08,-68.5166
1.489600000e+08,-80.9498
1.493333333e+08,-72.379
1.497066667e+08,-50.1587
1.500800000e+08,-47.0035
1.504533333e+08,-64.1968
1.508266667e+08,-65.2543
1.512000000e+08,-74.7618
1.515733333e+08,-66.4119
1.519466667e+08,-70.8295
1.523200000e+08,-65.731
1.526933333e+08,-51.8667
1.530666667e+08,-59.0293
1.534400000e+08,-68.2811
1.538133333e+08,-69.8145
1.541866667e+08,-69.597
1.545600000e+08,-71.6125
1.549333333e+08,-62.0074
1.553066667e+08,-48.5232
1.556800000e+08,-47.8861
1.560533333e+08,-42.24
1.564266667e+08,-53.8779
1.568000000e+08,-70.384
1.571733333e+08,-68.4741
1.575466667e+08,-63.1494
1.579200000e+08,-51.9641
1.582933333e+08,-52.3146
1.586666667e+08,-62.3909
1.590400000e+08,-68.1208
1.594133333e+08,-63.5027
1.597866667e+08,-64.9128
1.601600000e+08,-64.3822
1.605333333e+08,-51.5123
1.609066667e+08,-49.4907
1.612800000e+08,-52.5399
1.616533333e+08,-62.7514
1.620266667e+08,-59.5119
1.624000000e+08,-65.1564
1.627733333e+08,-62.2524
1.631466667e+08,-61.3908
1.635200000e+08,-54.5218
1.638933333e+08,-56.8411
1.642666667e+08,-66.3033
1.646400000e+08,-63.8974
1.650133333e+08,-67.19
1.653866667e+08,-66.6558
1.657600000e+08,-60.8465
1.661333333e+08,-52.2151
1.665066667e+08,-49.8906
1.668800000e+08,-56.5563
1.672533333e+08,-66.378
1.676266667e+08,-54.8478
1.680000000e+08,-47.3373
1.683733333e+08,-59.2539
1.687466667e+08,-57.4155
1.691200000e+08,-53.6465
1.694933333e+08,-56.896
1.698666667e+08,-65.3514
1.702400000e+08,-68.9353
1.706133333e+08,-69.3396
1.709866667e+08,-67.8145
1.713600000e+08,-55.4785
1.717333333e+08,-47.9407
1.721066667e+08,-48.2347
1.724800000e+08,-64.8785
1.728533333e+08,-67.1579
1.732266667e+08,-65.1301
1.736000000e+08,-64.1131
1.739733333e+08,-63.7391
1.743466667e+08,-53.1465
1.747200000e+08,-50.8504
1.750933333e+08,-68.7359
1.754666667e+08,-68.0747
1.758400000e+08,-71.5449
1.762133333e+08,-71.0839
1.765866667e+08,-64.9496
1.769600000e+08,-53.7533
1.773333333e+08,-47.4993
1.777066667e+08,-56.7552
1.780800000e+08,-67.4197
1.784533333e+08,-63.3379
1.788266667e+08,-64.6772
1.792000000e+08,-74.5374
1.795733333e+08,-53.3706
1.799466667e+08,-40.1107
1.803200000e+08,-45.3035
1.806933333e+08,-71.4606
1.810666667e+08,-68.9264
1.814400000e+08,-65.5568
1.818133333e+08,-65.1946
1.821866667e+08,-65.5593
1.825600000e+08,-46.3976
1.829333333e+08,-47.5128
1.833066667e+08,-62.5349
1.836800000e+08,-69.5005
1.840533333e+08,-72.3247
1.844266667e+08,-69.3538
1.848000000e+08,-68.2194
1.851733333e+08,-53.2084
1.855466667e+08,-52.2115
1.859200000e+08,-64.3676
1.862933333e+08,-69.766
1.866666667e+08,-69.4049
1.870400000e+08,-70.5906
1.874133333e+08,-67.9977
1.877866667e+08,-52.4319
1.881600000e+08,-48.1545
1.885333333e+08,-53.3683
1.889066667e+08,-60.7167
1.892800000e+08,-63.6906
1.896533333e+08,-65.5616
1.900266667e+08,-62.5978
1.904000000e+08,-62.1722
1.907733333e+08,-54.9662
1.911466667e+08,-58.3484
1.915200000e+08,-68.2879
1.918933333e+08,-44.1812
1.922666667e+08,-45.0179
1.926400000e+08,-66.2463
1.930133333e+08,-59.5761
1.933866667e+08,-49.9532
1.937600000e+08,-50.7922
1.941333333e+08,-54.5112
1.945066667e+08,-65.2917
1.948800000e+08,-67.8744
1.952533333e+08,-66.6559
1.956266667e+08,-60.8664
1.960000000e+08,-57.0866
1.963733333e+08,-55.5027
1.967466667e+08,-58.3514
1.971200000e+08,-61.9977
1.974933333e+08,-61.6067
1.978666667e+08,-62.5995
1.982400000e+08,-63.0353
1.986133333e+08,-54.187
1.989866667e+08,-47.9929
1.993600000e+08,-47.7585
1.997333333e+08,-59.8059
2.001066667e+08,-64.8447
2.004800000e+08,-67.5594
2.008533333e+08,-64.7879
2.012266667e+08,-60.5773
2.016000000e+08,-57.709
2.019733333e+08,-54.1497
2.023466667e+08,-63.8163
2.027200000e+08,-63.222
2.030933333e+08,-71.7728
2.034666667e+08,-63.3801
2.038400000e+08,-48.9513
2.042133333e+08,-51.3089
2.045866667e+08,-46.7569
2.049600000e+08,-53.8376
2.053333333e+08,-65.3389
2.057066667e+08,-69.7978
2.060800000e+08,-64.7014
2.064533333e+08,-69.6387
2.068266667e+08,-67.1468
2.072000000e+08,-51.2601
2.075733333e+08,-54.5644
2.079466667e+08,-67.6575
2.083200000e+08,-71.1538
2.086933333e+08,-64.7597
2.090666667e+08,-63.2363
2.094400000e+08,-67.201
2.098133333e+08,-45.3839
2.101866667e+08,-45.4514
2.105600000e+08,-67.8752
2.109333333e+08,-68.8976
2.113066667e+08,-67.3132
2.116800000e+08,-68.3829
2.120533333e+08,-62.7361
2.124266667e+08,-55.3033
2.128000000e+08,-53.1601
2.131733333e+08,-71.3227
2.135466667e+08,-66.4563
2.139200000e+08,-66.9033
2.142933333e+08,-66.5893
2.146666667e+08,-65.4628
2.150400000e+08,-52.1864
2.154133333e+08,-45.7072
2.157866667e+08,-46.4682
2.161600000e+08,-45.6373
2.165333333e+08,-61.7905
2.169066667e+08,-66.7315
2.172800000e+08,-66.4755
2.176533333e+08,-63.2056
2.180266667e+08,-54.0251
2.184000000e+08,-56.8114
2.187733333e+08,-70.2383
2.191466667e+08,-65.7152
2.195200000e+08,-64.971
2.198933333e+08,-65.5852
2.202666667e+08,-58.6842
2.206400000e+08,-47.9681
2.210133333e+08,-48.7375
2.213866667e+08,-53.6338
2.217600000e+08,-62.8489
2.221333333e+08,-66.0232
2.225066667e+08,-65.3484
2.228800000e+08,-62.9623
2.232533333e+08,-57.5627
2.236266667e+08,-54.9627
2.240000000e+08,-58.4373
2.243733333e+08,-65.373
2.247466667e+08,-65.8514
2.251200000e+08,-64.3725
2.254933333e+08,-63.1075
2.258666667e+08,-54.8953
2.262400000e+08,-49.3601
2.266133333e+08,-48.1894
2.269866667e+08,-56.9976
2.273600000e+08,-65.4325
2.277333333e+08,-51.8989
2.281066667e+08,-50.0524
2.284800000e+08,-63.1388
2.288533333e+08,-57.2672
2.292266667e+08,-54.7948
2.296000000e+08,-63.6817
2.299733333e+08,-63.6036
2.303466667e+08,-65.941
2.307200000e+08,-67.0574
2.310933333e+08,-60.8403
2.314666667e+08,-53.5228
2.318400000e+08,-46.2533
2.322133333e+08,-50.4878
2.325866667e+08,-65.0554
2.329600000e+08,-68.8106
2.333333333e+08,-63.4229
2.337066667e+08,-64.4226
2.340800000e+08,-62.1525
2.344533333e+08,-52.47
2.348266667e+08,-53.6355
2.352000000e+08,-70.3786
2.355733333e+08,-74.6668
2.359466667e+08,-78.021
2.363200000e+08,-74.8399
2.366933333e+08,-66.7372
2.370666667e+08,-47.6213
2.374400000e+08,-46.1757
2.378133333e+08,-65.3726
2.381866667e+08,-71.125
2.385600000e+08,-72.2467
2.389333333e+08,-70.8997
2.393066667e+08,-70.5799
2.396800000e+08,-68.9324
2.400533333e+08,-50.4792
2.404266667e+08,-52.7218
2.408000000e+08,-70.63
2.411733333e+08,-68.7743
2.415466667e+08,-74.8595
2.419200000e+08,-68.6457
2.422933333e+08,-57.8352
2.426666667e+08,-46.2311
2.430400000e+08,-52.1127
2.434133333e+08,-67.288
2.437866667e+08,-68.8395
2.441600000e+08,-68.4901
2.445333333e+08,-68.1233
2.449066667e+08,-73.0386
2.452800000e+08,-53.1906
2.456533333e+08,-54.913
2.460266667e+08,-72.2905
2.464000000e+08,-73.1528
2.467733333e+08,-67.5084
2.471466667e+08,-67.5078
2.475200000e+08,-61.7204
2.478933333e+08,-48.1292
2.482666667e+08,-47.7946
2.486400000e+08,-56.099
2.490133333e+08,-66.6317
2.493866667e+08,-66.7273
2.497600000e+08,-71.4137
2.501333333e+08,-66.3517
2.505066667e+08,-59.0599
2.508800000e+08,-54.8213
2.512533333e+08,-57.4274
2.516266667e+08,-49.2223
2.520000000e+08,-42.1079
2.523733333e+08,-52.5583
2.527466667e+08,-64.9648
2.531200000e+08,-59.7531
2.534933333e+08,-49.9936
2.538666667e+08,-50.1231
2.542400000e+08,-61.4202
2.546133333e+08,-62.5718
2.549866667e+08,-63.6768
2.553600000e+08,-63.1818
2.557333333e+08,-64.8537
2.561066667e+08,-56.4555
2.564800000e+08,-54.8075
2.568533333e+08,-62.4943
2.572266667e+08,-69.2474
2.576000000e+08,-66.1524
2.579733333e+08,-59.0947
2.583466667e+08,-63.7227
2.587200000e+08,-53.1062
2.590933333e+08,-48.8577
2.594666667e+08,-50.9537
2.598400000e+08,-63.4896
2.602133333e+08,-64.8656
2.605866667e+08,-64.2395
2.609600000e+08,-68.0953
2.613333333e+08,-60.1899
2.617066667e+08,-54.5028
2.620800000e+08,-54.5997
2.624533333e+08,-66.584
2.628266667e+08,-66.3317
2.632000000e+08,-66.1549
2.635733333e+08,-61.5286
2.639466667e+08,-49.3893
2.643200000e+08,-50.6748
2.646933333e+08,-48.53
2.650666667e+08,-65.0218
2.654400000e+08,-69.2505
2.658133333e+08,-76.5861
2.661866667e+08,-71.73
2.665600000e+08,-72.5678
2.669333333e+08,-62.6773
2.673066667e+08,-52.961
2.676800000e+08,-60.4628
2.680533333e+08,-75.7848
2.684266667e+08,-80.8827
2.688000000e+08,-81.8303
2.691733333e+08,-75.6318
2.695466667e+08,-62.4591
2.699200000e+08,-48.5779
2.702933333e+08,-52.3019
2.706666667e+08,-75.1941
2.710400000e+08,-73.1586
2.714133333e+08,-73.0018
2.717866667e+08,-73.1986
2.721600000e+08,-69.1976
2.725333333e+08,-52.7303
2.729066667e+08,-53.582
2.732800000e+08,-72.7145
2.736533333e+08,-76.1697
2.740266667e+08,-72.149
2.744000000e+08,-71.1171
2.747733333e+08,-68.281
2.751466667e+08,-50.2158
2.755200000e+08,-48.1911
2.758933333e+08,-43.1151
2.762666667e+08,-45.9246
2.766400000e+08,-65.8624
2.770133333e+08,-66.0429
2.773866667e+08,-66.8159
2.777600000e+08,-59.5148
2.781333333e+08,-53.8664
2.785066667e+08,-60.9816
2.788800000e+08,-69.4368
2.792533333e+08,-67.3405
2.796266667e+08,-69.9273
2.800000000e+08,-66.6445

