Model,MDO3104
Firmware Version,1.30

Waveform Type,RF_FD
Point Format,Y
Horizontal Units,Hz
Horizontal Scale,2.8e+07
,
Sample Interval,373333
Record Length,751
Gating,0.133155792277% to 100.0%
Probe Attenuation,1
Vertical Units,dBm
Vertical Offset,0
Vertical Scale,10
Vertical Position,0
Center Frequency,1.4e+08
Span,2.8e+08
Reference Level,-15
Label,
FREQUENCY,FD NORM
0.000000000e+00,-62.4752
3.733333333e+05,-73.1418
7.466666667e+05,-74.8403
1.120000000e+06,-74.5375
1.493333333e+06,-69.0998
1.866666667e+06,-68.4279
2.240000000e+06,-71.6581
2.613333333e+06,-66.729
2.986666667e+06,-68.9408
3.360000000e+06,-61.7437
3.733333333e+06,-63.9995
4.106666667e+06,-61.8967
4.480000000e+06,-60.9248
4.853333333e+06,-72.2017
5.226666667e+06,-66.4016
5.600000000e+06,-71.0607
5.973333333e+06,-62.3216
6.346666667e+06,-67.2728
6.720000000e+06,-69.6247
7.093333333e+06,-71.8885
7.466666667e+06,-72.0612
7.840000000e+06,-68.0977
8.213333333e+06,-68.8488
8.586666667e+06,-73.2788
8.960000000e+06,-72.6181
9.333333333e+06,-69.7965
9.706666667e+06,-68.3018
1.008000000e+07,-70.5568
1.045333333e+07,-65.8572
1.082666667e+07,-71.6663
1.120000000e+07,-67.2988
1.157333333e+07,-62.4975
1.194666667e+07,-56.262
1.232000000e+07,-61.6254
1.269333333e+07,-63.4129
1.306666667e+07,-64.5709
1.344000000e+07,-72.5539
1.381333333e+07,-64.5762
1.418666667e+07,-66.6742
1.456000000e+07,-71.733
1.493333333e+07,-71.0251
1.530666667e+07,-69.8113
1.568000000e+07,-72.6573
1.605333333e+07,-62.9612
1.642666667e+07,-66.7104
1.680000000e+07,-67.3779
1.717333333e+07,-69.7815
1.754666667e+07,-68.7923
1.792000000e+07,-56.2321
1.829333333e+07,-59.3271
1.866666667e+07,-68.6109
1.904000000e+07,-68.9234
1.941333333e+07,-70.8161
1.978666667e+07,-76.9596
2.016000000e+07,-73.1777
2.053333333e+07,-76.7117
2.090666667e+07,-75.6292
2.128000000e+07,-66.1535
2.165333333e+07,-66.5169
2.202666667e+07,-64.9678
2.240000000e+07,-67.0279
2.277333333e+07,-65.4488
2.314666667e+07,-68.2917
2.352000000e+07,-66.1277
2.389333333e+07,-62.2659
2.426666667e+07,-63.9396
2.464000000e+07,-57.3283
2.501333333e+07,-52.3138
2.538666667e+07,-60.6097
2.576000000e+07,-66.9013
2.613333333e+07,-65.7029
2.650666667e+07,-67.7616
2.688000000e+07,-66.3512
2.725333333e+07,-59.5436
2.762666667e+07,-61.4777
2.800000000e+07,-71.1744
2.837333333e+07,-70.8046
2.874666667e+07,-69.7475
2.912000000e+07,-70.4409
2.949333333e+07,-71.8616
2.986666667e+07,-51.0762
3.024000000e+07,-52.2609
3.061333333e+07,-77.0286
3.098666667e+07,-80.5546
3.136000000e+07,-70.259
3.173333333e+07,-73.0074
3.210666667e+07,-76.7326
3.248000000e+07,-60.3986
3.285333333e+07,-59.219
3.322666667e+07,-71.9882
3.360000000e+07,-84.2431
3.397333333e+07,-75.8879
3.434666667e+07,-73.4526
3.472000000e+07,-74.306
3.509333333e+07,-61.4216
3.546666667e+07,-59.3123
3.584000000e+07,-47.6857
3.621333333e+07,-48.2958
3.658666667e+07,-69.4166
3.696000000e+07,-74.1936
3.733333333e+07,-71.0852
3.770666667e+07,-63.3599
3.808000000e+07,-59.4265
3.845333333e+07,-69.4386
3.882666667e+07,-71.9088
3.920000000e+07,-80.37
3.957333333e+07,-73.5079
3.994666667e+07,-69.5204
4.032000000e+07,-67.4258
4.069333333e+07,-60.7551
4.106666667e+07,-61.0237
4.144000000e+07,-61.4931
4.181333333e+07,-53.6066
4.218666667e+07,-53.3338
4.256000000e+07,-70.1286
4.293333333e+07,-66.6719
4.330666667e+07,-59.7086
4.368000000e+07,-61.9193
4.405333333e+07,-63.0923
4.442666667e+07,-69.5467
4.480000000e+07,-70.5591
4.517333333e+07,-68.2335
4.554666667e+07,-67.8636
4.592000000e+07,-61.2838
4.629333333e+07,-61.6681
4.666666667e+07,-59.3818
4.704000000e+07,-70.562
4.741333333e+07,-71.8223
4.778666667e+07,-37.0269
4.816000000e+07,-36.0983
4.853333333e+07,-59.328
4.890666667e+07,-61.5938
4.928000000e+07,-60.0367
4.965333333e+07,-67.3141
5.002666667e+07,-69.4854
5.040000000e+07,-77.0169
5.077333333e+07,-71.2981
5.114666667e+07,-68.2294
5.152000000e+07,-62.9029
5.189333333e+07,-56.2962
5.226666667e+07,-60.8534
5.264000000e+07,-69.1051
5.301333333e+07,-71.0511
5.338666667e+07,-70.4876
5.376000000e+07,-50.8567
5.413333333e+07,-49.0088
5.450666667e+07,-57.5297
5.488000000e+07,-59.9842
5.525333333e+07,-67.924
5.562666667e+07,-70.4725
5.600000000e+07,-80.5127
5.637333333e+07,-73.0953
5.674666667e+07,-74.245
5.712000000e+07,-53.7852
5.749333333e+07,-53.5108
5.786666667e+07,-68.3873
5.824000000e+07,-71.0214
5.861333333e+07,-69.764
5.898666667e+07,-69.1006
5.936000000e+07,-73.2341
5.973333333e+07,-36.5246
6.010666667e+07,-34.0187
6.048000000e+07,-51.4582
6.085333333e+07,-83.5774
6.122666667e+07,-79.432
6.160000000e+07,-71.2185
6.197333333e+07,-69.7805
6.234666667e+07,-59.9415
6.272000000e+07,-53.4734
6.309333333e+07,-65.356
6.346666667e+07,-69.3252
6.384000000e+07,-71.9776
6.421333333e+07,-73.7587
6.458666667e+07,-69.5709
6.496000000e+07,-62.9669
6.533333333e+07,-55.598
6.570666667e+07,-49.138
6.608000000e+07,-45.2422
6.645333333e+07,-58.419
6.682666667e+07,-67.5715
6.720000000e+07,-72.9242
6.757333333e+07,-70.2943
6.794666667e+07,-57.2175
6.832000000e+07,-59.6495
6.869333333e+07,-62.9873
6.906666667e+07,-65.9146
6.944000000e+07,-66.6716
6.981333333e+07,-72.0216
7.018666667e+07,-70.4685
7.056000000e+07,-57.5314
7.093333333e+07,-58.045
7.130666667e+07,-60.9899
7.168000000e+07,-46.2938
7.205333333e+07,-40.7203
7.242666667e+07,-51.6466
7.280000000e+07,-70.9586
7.317333333e+07,-63.3749
7.354666667e+07,-60.765
7.392000000e+07,-59.4756
7.429333333e+07,-62.5963
7.466666667e+07,-69.0317
7.504000000e+07,-64.7367
7.541333333e+07,-68.1643
7.578666667e+07,-62.1253
7.616000000e+07,-58.7088
7.653333333e+07,-59.9696
7.690666667e+07,-65.3991
7.728000000e+07,-67.4965
7.765333333e+07,-55.6166
7.802666667e+07,-48.0843
7.840000000e+07,-55.2582
7.877333333e+07,-63.9156
7.914666667e+07,-55.263
7.952000000e+07,-57.5242
7.989333333e+07,-72.7124
8.026666667e+07,-68.1864
8.064000000e+07,-69.3311
8.101333333e+07,-81.6221
8.138666667e+07,-62.5275
8.176000000e+07,-56.1512
8.213333333e+07,-56.2066
8.250666667e+07,-63.6925
8.288000000e+07,-69.6565
8.325333333e+07,-72.3725
8.362666667e+07,-48.8589
8.400000000e+07,-39.6624
8.437333333e+07,-46.7315
8.474666667e+07,-52.8822
8.512000000e+07,-67.438
8.549333333e+07,-68.4056
8.586666667e+07,-64.7313
8.624000000e+07,-78.001
8.661333333e+07,-69.5874
8.698666667e+07,-59.6057
8.736000000e+07,-54.0734
8.773333333e+07,-69.2848
8.810666667e+07,-73.9123
8.848000000e+07,-70.7616
8.885333333e+07,-70.2331
8.922666667e+07,-69.7151
8.960000000e+07,-62.836
8.997333333e+07,-50.8542
9.034666667e+07,-57.1131
9.072000000e+07,-69.2102
9.109333333e+07,-76.3466
9.146666667e+07,-78.7169
9.184000000e+07,-74.2228
9.221333333e+07,-66.7451
9.258666667e+07,-53.2816
9.296000000e+07,-55.9657
9.333333333e+07,-74.3481
9.370666667e+07,-69.0839
9.408000000e+07,-68.9448
9.445333333e+07,-71.9945
9.482666667e+07,-65.3104
9.520000000e+07,-53.15
9.557333333e+07,-53.5041
9.594666667e+07,-43.5869
9.632000000e+07,-49.2918
9.669333333e+07,-69.3176
9.706666667e+07,-70.7276
9.744000000e+07,-67.6025
9.781333333e+07,-56.1636
9.818666667e+07,-54.5783
9.856000000e+07,-71.0954
9.893333333e+07,-69.9405
9.930666667e+07,-64.3339
9.968000000e+07,-67.9214
1.000533333e+08,-67.9857
1.004266667e+08,-56.7946
1.008000000e+08,-52.4621
1.011733333e+08,-59.6107
1.015466667e+08,-61.415
1.019200000e+08,-54.2815
1.022933333e+08,-56.0516
1.026666667e+08,-60.4637
1.030400000e+08,-59.0692
1.034133333e+08,-56.0009
1.037866667e+08,-59.6417
1.041600000e+08,-62.3557
1.045333333e+08,-69.2746
1.049066667e+08,-71.762
1.052800000e+08,-68.6706
1.056533333e+08,-63.1349
1.060266667e+08,-56.2258
1.064000000e+08,-53.7788
1.067733333e+08,-54.7374
1.071466667e+08,-64.2309
1.075200000e+08,-68.2818
1.078933333e+08,-49.4767
1.082666667e+08,-50.4741
1.086400000e+08,-59.8871
1.090133333e+08,-56.0664
1.093866667e+08,-55.0036
1.097600000e+08,-66.3419
1.101333333e+08,-67.5136
1.105066667e+08,-69.6947
1.108800000e+08,-68.6366
1.112533333e+08,-62.7141
1.116266667e+08,-56.9091
1.120000000e+08,-51.9152
1.123733333e+08,-62.0505
1.127466667e+08,-65.9858
1.131200000e+08,-64.9152
1.134933333e+08,-64.9436
1.138666667e+08,-58.5558
1.142400000e+08,-60.1332
1.146133333e+08,-52.647
1.149866667e+08,-59.0119
1.153600000e+08,-67.8516
1.157333333e+08,-74.1768
1.161066667e+08,-66.7369
1.164800000e+08,-66.2271
1.168533333e+08,-65.5447
1.172266667e+08,-50.4947
1.176000000e+08,-53.7921
1.179733333e+08,-69.2922
1.183466667e+08,-67.9254
1.187200000e+08,-68.4683
1.190933333e+08,-76.2209
1.194666667e+08,-62.3917
1.198400000e+08,-36.0433
1.202133333e+08,-36.8188
1.205866667e+08,-72.0586
1.209600000e+08,-71.4572
1.213333333e+08,-72.1314
1.217066667e+08,-72.7729
1.220800000e+08,-73.2811
1.224533333e+08,-49.9791
1.228266667e+08,-48.8115
1.232000000e+08,-67.0174
1.235733333e+08,-67.2185
1.239466667e+08,-70.0512
1.243200000e+08,-68.3172
1.246933333e+08,-68.7076
1.250666667e+08,-57.2988
1.254400000e+08,-52.1368
1.258133333e+08,-56.503
1.261866667e+08,-55.4918
1.265600000e+08,-66.9574
1.269333333e+08,-69.0551
1.273066667e+08,-72.3241
1.276800000e+08,-56.3341
1.280533333e+08,-50.3657
1.284266667e+08,-56.6
1.288000000e+08,-58.8896
1.291733333e+08,-64.0181
1.295466667e+08,-69.8045
1.299200000e+08,-67.9475
1.302933333e+08,-60.6008
1.306666667e+08,-52.3899
1.310400000e+08,-56.207
1.314133333e+08,-58.449
1.317866667e+08,-45.4346
1.321600000e+08,-44.0789
1.325333333e+08,-65.9754
1.329066667e+08,-60.7232
1.332800000e+08,-51.6833
1.336533333e+08,-52.8301
1.340266667e+08,-53.2326
1.344000000e+08,-57.9949
1.347733333e+08,-63.4428
1.351466667e+08,-64.2892
1.355200000e+08,-62.0316
1.358933333e+08,-55.7402
1.362666667e+08,-55.225
1.366400000e+08,-55.1237
1.370133333e+08,-65.0858
1.373866667e+08,-66.651
1.377600000e+08,-61.386
1.381333333e+08,-59.619
1.385066667e+08,-58.0674
1.388800000e+08,-55.3229
1.392533333e+08,-50.8484
1.396266667e+08,-55.5853
1.400000000e+08,-61.4927
1.403733333e+08,-68.6182
1.407466667e+08,-66.4319
1.411200000e+08,-61.14
1.414933333e+08,-59.9863
1.418666667e+08,-53.0548
1.422400000e+08,-57.0903
1.426133333e+08,-65.3318
1.429866667e+08,-63.7061
1.433600000e+08,-67.4347
1.437333333e+08,-52.1829
1.441066667e+08,-44.8268
1.444800000e+08,-49.9914
1.448533333e+08,-51.0239
1.452266667e+08,-62.8599
1.456000000e+08,-63.4728
1.459733333e+08,-70.0442
1.463466667e+08,-73.3157
1.467200000e+08,-68.5299
1.470933333e+08,-53.6346
1.474666667e+08,-52.6245
1.478400000e+08,-71.3359
1.482133333e+08,-68.185
1.485866667e+08,-71.3654
1.489600000e+08,-73.7777
1.493333333e+08,-73.9711
1.497066667e+08,-51.6516
1.500800000e+08,-48.1842
1.504533333e+08,-63.8041
1.508266667e+08,-65.457
1.512000000e+08,-67.5201
1.515733333e+08,-66.4743
1.519466667e+08,-67.6166
1.523200000e+08,-60.8477
1.526933333e+08,-52.1891
1.530666667e+08,-60.1778
1.534400000e+08,-71.6939
1.538133333e+08,-77.5592
1.541866667e+08,-70.7767
1.545600000e+08,-66.1176
1.549333333e+08,-58.1715
1.553066667e+08,-48.5525
1.556800000e+08,-54.0627
1.560533333e+08,-51.2014
1.564266667e+08,-60.7647
1.568000000e+08,-67.2886
1.571733333e+08,-66.4426
1.575466667e+08,-61.965
1.579200000e+08,-51.6549
1.582933333e+08,-53.0193
1.586666667e+08,-60.664
1.590400000e+08,-63.5743
1.594133333e+08,-64.6826
1.597866667e+08,-65.5628
1.601600000e+08,-60.0729
1.605333333e+08,-51.0437
1.609066667e+08,-50.3088
1.612800000e+08,-53.5548
1.616533333e+08,-60.4606
1.620266667e+08,-62.162
1.624000000e+08,-60.7841
1.627733333e+08,-61.0758
1.631466667e+08,-57.2442
1.635200000e+08,-54.6841
1.638933333e+08,-56.609
1.642666667e+08,-61.7625
1.646400000e+08,-63.9655
1.650133333e+08,-65.9058
1.653866667e+08,-61.2545
1.657600000e+08,-56.1557
1.661333333e+08,-52.7713
1.665066667e+08,-49.8097
1.668800000e+08,-53.374
1.672533333e+08,-61.5175
1.676266667e+08,-58.879
1.680000000e+08,-45.2769
1.683733333e+08,-50.5357
1.687466667e+08,-60.6213
1.691200000e+08,-53.6917
1.694933333e+08,-55.1369
1.698666667e+08,-65.4955
1.702400000e+08,-63.2779
1.706133333e+08,-63.3544
1.709866667e+08,-63.7635
1.713600000e+08,-57.3174
1.717333333e+08,-49.0233
1.721066667e+08,-48.5769
1.724800000e+08,-58.9996
1.728533333e+08,-66.8118
1.732266667e+08,-66.6483
1.736000000e+08,-67.213
1.739733333e+08,-60.9998
1.743466667e+08,-55.7535
1.747200000e+08,-52.272
1.750933333e+08,-60.6626
1.754666667e+08,-71.7917
1.758400000e+08,-76.0328
1.762133333e+08,-75.7868
1.765866667e+08,-69.5212
1.769600000e+08,-55.4216
1.773333333e+08,-47.0586
1.777066667e+08,-55.851
1.780800000e+08,-70.2974
1.784533333e+08,-68.3826
1.788266667e+08,-67.0131
1.792000000e+08,-78.2148
1.795733333e+08,-54.7383
1.799466667e+08,-38.7407
1.803200000e+08,-43.0116
1.806933333e+08,-69.1254
1.810666667e+08,-66.7263
1.814400000e+08,-65.2628
1.818133333e+08,-66.1125
1.821866667e+08,-64.2904
1.825600000e+08,-47.5149
1.829333333e+08,-49.4082
1.833066667e+08,-66.6251
1.836800000e+08,-67.3777
1.840533333e+08,-67.8248
1.844266667e+08,-70.7033
1.848000000e+08,-67.2963
1.851733333e+08,-52.0167
1.855466667e+08,-51.5748
1.859200000e+08,-64.4823
1.862933333e+08,-68.4968
1.866666667e+08,-73.3908
1.870400000e+08,-66.7771
1.874133333e+08,-62.6687
1.877866667e+08,-51.1376
1.881600000e+08,-49.0322
1.885333333e+08,-56.7714
1.889066667e+08,-60.4615
1.892800000e+08,-63.1382
1.896533333e+08,-65.2871
1.900266667e+08,-63.5173
1.904000000e+08,-57.7506
1.907733333e+08,-53.4711
1.911466667e+08,-57.1129
1.915200000e+08,-51.6315
1.918933333e+08,-52.0255
1.922666667e+08,-52.4741
1.926400000e+08,-63.4602
1.930133333e+08,-59.5928
1.933866667e+08,-50.8953
1.937600000e+08,-50.4239
1.941333333e+08,-51.8447
1.945066667e+08,-61.5524
1.948800000e+08,-62.3461
1.952533333e+08,-59.9238
1.956266667e+08,-61.6317
1.960000000e+08,-59.6017
1.963733333e+08,-55.1572
1.967466667e+08,-55.8472
1.971200000e+08,-67.1091
1.974933333e+08,-66.2146
1.978666667e+08,-60.1831
1.982400000e+08,-59.6783
1.986133333e+08,-55.3246
1.989866667e+08,-51.3045
1.993600000e+08,-48.8867
1.997333333e+08,-57.6289
2.001066667e+08,-59.9608
2.004800000e+08,-64.681
2.008533333e+08,-71.8443
2.012266667e+08,-66.2327
2.016000000e+08,-63.7204
2.019733333e+08,-54.0449
2.023466667e+08,-62.0946
2.027200000e+08,-63.5109
2.030933333e+08,-66.946
2.034666667e+08,-63.6131
2.038400000e+08,-48.6182
2.042133333e+08,-48.0283
2.045866667e+08,-47.8106
2.049600000e+08,-52.6291
2.053333333e+08,-67.6886
2.057066667e+08,-66.9525
2.060800000e+08,-69.5075
2.064533333e+08,-64.1555
2.068266667e+08,-66.7425
2.072000000e+08,-50.8948
2.075733333e+08,-53.0668
2.079466667e+08,-63.8047
2.083200000e+08,-63.3949
2.086933333e+08,-64.6393
2.090666667e+08,-64.206
2.094400000e+08,-64.146
2.098133333e+08,-46.4729
2.101866667e+08,-46.5115
2.105600000e+08,-63.1816
2.109333333e+08,-64.878
2.113066667e+08,-65.2443
2.116800000e+08,-71.1026
2.120533333e+08,-61.9621
2.124266667e+08,-53.6302
2.128000000e+08,-52.0896
2.131733333e+08,-62.1749
2.135466667e+08,-64.2046
2.139200000e+08,-70.3934
2.142933333e+08,-72.1961
2.146666667e+08,-61.1643
2.150400000e+08,-51.2946
2.154133333e+08,-46.6268
2.157866667e+08,-47.1274
2.161600000e+08,-45.7547
2.165333333e+08,-61.5774
2.169066667e+08,-63.1809
2.172800000e+08,-65.7487
2.176533333e+08,-58.4133
2.180266667e+08,-53.562
2.184000000e+08,-61.5028
2.187733333e+08,-60.5267
2.191466667e+08,-63.2651
2.195200000e+08,-64.2212
2.198933333e+08,-60.9493
2.202666667e+08,-56.4894
2.206400000e+08,-48.446
2.210133333e+08,-51.7352
2.213866667e+08,-53.0664
2.217600000e+08,-58.5991
2.221333333e+08,-67.3265
2.225066667e+08,-63.5614
2.228800000e+08,-60.4315
2.232533333e+08,-54.7957
2.236266667e+08,-55.4539
2.240000000e+08,-58.2366
2.243733333e+08,-61.7602
2.247466667e+08,-61.2696
2.251200000e+08,-63.0274
2.254933333e+08,-60.3515
2.258666667e+08,-52.6874
2.262400000e+08,-51.0997
2.266133333e+08,-49.9586
2.269866667e+08,-56.6204
2.273600000e+08,-60.9876
2.277333333e+08,-49.9102
2.281066667e+08,-45.9697
2.284800000e+08,-62.0658
2.288533333e+08,-58.2531
2.292266667e+08,-55.4575
2.296000000e+08,-58.8037
2.299733333e+08,-63.2665
2.303466667e+08,-64.3997
2.307200000e+08,-63.8457
2.310933333e+08,-57.9141
2.314666667e+08,-55.3103
2.318400000e+08,-47.3726
2.322133333e+08,-49.5412
2.325866667e+08,-61.5839
2.329600000e+08,-67.0666
2.333333333e+08,-67.6533
2.337066667e+08,-65.6578
2.340800000e+08,-61.7962
2.344533333e+08,-54.0369
2.348266667e+08,-54.194
2.352000000e+08,-65.546
2.355733333e+08,-65.6962
2.359466667e+08,-70.5005
2.363200000e+08,-69.3682
2.366933333e+08,-68.1639
2.370666667e+08,-48.4489
2.374400000e+08,-46.4955
2.378133333e+08,-61.0259
2.381866667e+08,-68.5337
2.385600000e+08,-75.7761
2.389333333e+08,-70.9591
2.393066667e+08,-57.5875
2.396800000e+08,-46.0323
2.400533333e+08,-45.411
2.404266667e+08,-57.8972
2.408000000e+08,-75.8074
2.411733333e+08,-74.0765
2.415466667e+08,-69.4303
2.419200000e+08,-66.6054
2.422933333e+08,-54.7223
2.426666667e+08,-46.5055
2.430400000e+08,-55.2385
2.434133333e+08,-66.4145
2.437866667e+08,-66.4151
2.441600000e+08,-67.0611
2.445333333e+08,-75.3963
2.449066667e+08,-63.1933
2.452800000e+08,-53.3569
2.456533333e+08,-56.864
2.460266667e+08,-64.6867
2.464000000e+08,-67.9659
2.467733333e+08,-67.8334
2.471466667e+08,-61.0828
2.475200000e+08,-58.6252
2.478933333e+08,-48.4306
2.482666667e+08,-48.9314
2.486400000e+08,-55.5408
2.490133333e+08,-62.7074
2.493866667e+08,-63.3876
2.497600000e+08,-62.0567
2.501333333e+08,-61.3342
2.505066667e+08,-56.2396
2.508800000e+08,-54.9666
2.512533333e+08,-60.0145
2.516266667e+08,-62.3826
2.520000000e+08,-46.5978
2.523733333e+08,-53.221
2.527466667e+08,-58.5531
2.531200000e+08,-53.874
2.534933333e+08,-50.5173
2.538666667e+08,-51.3441
2.542400000e+08,-56.9189
2.546133333e+08,-63.973
2.549866667e+08,-62.7863
2.553600000e+08,-64.3755
2.557333333e+08,-62.0577
2.561066667e+08,-57.7595
2.564800000e+08,-57.3016
2.568533333e+08,-59.9803
2.572266667e+08,-62.5893
2.576000000e+08,-66.0588
2.579733333e+08,-67.6969
2.583466667e+08,-59.9942
2.587200000e+08,-54.0188
2.590933333e+08,-49.1768
2.594666667e+08,-50.0103
2.598400000e+08,-59.0062
2.602133333e+08,-65.6325
2.605866667e+08,-63.84
2.609600000e+08,-63.3572
2.613333333e+08,-64.6026
2.617066667e+08,-54.7891
2.620800000e+08,-53.4931
2.624533333e+08,-60.6795
2.628266667e+08,-70.1791
2.632000000e+08,-66.3108
2.635733333e+08,-62.3265
2.639466667e+08,-48.1793
2.643200000e+08,-51.8113
2.646933333e+08,-47.7145
2.650666667e+08,-58.9487
2.654400000e+08,-67.7632
2.658133333e+08,-69.0923
2.661866667e+08,-71.2643
2.665600000e+08,-72.2296
2.669333333e+08,-65.676
2.673066667e+08,-53.8507
2.676800000e+08,-58.5258
2.680533333e+08,-71.028
2.684266667e+08,-71.9188
2.688000000e+08,-69.6979
2.691733333e+08,-70.8642
2.695466667e+08,-59.5824
2.699200000e+08,-46.0156
2.702933333e+08,-49.7472
2.706666667e+08,-66.8501
2.710400000e+08,-67.9333
2.714133333e+08,-64.358
2.717866667e+08,-65.1102
2.721600000e+08,-66.1428
2.725333333e+08,-54.1426
2.729066667e+08,-55.1219
2.732800000e+08,-72.4246
2.736533333e+08,-72.7543
2.740266667e+08,-71.1387
2.744000000e+08,-62.5472
2.747733333e+08,-63.0522
2.751466667e+08,-49.889
2.755200000e+08,-48.8041
2.758933333e+08,-45.9499
2.762666667e+08,-47.7497
2.766400000e+08,-63.089
2.770133333e+08,-63.6154
2.773866667e+08,-68.0124
2.777600000e+08,-58.3746
2.781333333e+08,-55.3324
2.785066667e+08,-62.4018
2.788800000e+08,-65.504
2.792533333e+08,-65.7113
2.796266667e+08,-69.1995
2.800000000e+08,-63.7271

