Model,MDO3104
Firmware Version,1.30

Waveform Type,RF_FD
Point Format,Y
Horizontal Units,Hz
Horizontal Scale,2.8e+07
,
Sample Interval,373333
Record Length,751
Gating,0.133155792277% to 100.0%
Probe Attenuation,1
Vertical Units,dBm
Vertical Offset,0
Vertical Scale,10
Vertical Position,0
Center Frequency,1.4e+08
Span,2.8e+08
Reference Level,-15
Label,
FREQUENCY,FD NORM
0.000000000e+00,-65.4783
3.733333333e+05,-75.632
7.466666667e+05,-77.1926
1.120000000e+06,-78.4282
1.493333333e+06,-70.3202
1.866666667e+06,-67.7192
2.240000000e+06,-67.8895
2.613333333e+06,-64.5797
2.986666667e+06,-74.8624
3.360000000e+06,-59.0735
3.733333333e+06,-61.9933
4.106666667e+06,-64.1465
4.480000000e+06,-62.5015
4.853333333e+06,-68.0053
5.226666667e+06,-62.8678
5.600000000e+06,-66.2198
5.973333333e+06,-75.4657
6.346666667e+06,-75.5068
6.720000000e+06,-69.2471
7.093333333e+06,-67.1567
7.466666667e+06,-71.0564
7.840000000e+06,-71.7551
8.213333333e+06,-68.9103
8.586666667e+06,-77.041
8.960000000e+06,-72.4707
9.333333333e+06,-70.0512
9.706666667e+06,-73.3181
1.008000000e+07,-72.3408
1.045333333e+07,-77.3108
1.082666667e+07,-77.5514
1.120000000e+07,-75.6522
1.157333333e+07,-76.4777
1.194666667e+07,-65.6481
1.232000000e+07,-66.6238
1.269333333e+07,-73.2533
1.306666667e+07,-71.8377
1.344000000e+07,-64.2518
1.381333333e+07,-66.0132
1.418666667e+07,-71.3451
1.456000000e+07,-78.2308
1.493333333e+07,-70.1366
1.530666667e+07,-69.9073
1.568000000e+07,-67.7005
1.605333333e+07,-66.9103
1.642666667e+07,-68.7514
1.680000000e+07,-68.3518
1.717333333e+07,-65.751
1.754666667e+07,-64.3721
1.792000000e+07,-76.8106
1.829333333e+07,-70.0038
1.866666667e+07,-72.5367
1.904000000e+07,-72.4074
1.941333333e+07,-67.5878
1.978666667e+07,-68.1631
2.016000000e+07,-70.4313
2.053333333e+07,-78.2211
2.090666667e+07,-80.354
2.128000000e+07,-73.1596
2.165333333e+07,-68.7736
2.202666667e+07,-73.3043
2.240000000e+07,-67.412
2.277333333e+07,-64.9862
2.314666667e+07,-65.8934
2.352000000e+07,-61.2677
2.389333333e+07,-71.4533
2.426666667e+07,-70.2137
2.464000000e+07,-59.9033
2.501333333e+07,-54.3294
2.538666667e+07,-60.628
2.576000000e+07,-71.7865
2.613333333e+07,-67.8524
2.650666667e+07,-68.8419
2.688000000e+07,-78.5564
2.725333333e+07,-60.7877
2.762666667e+07,-67.9703
2.800000000e+07,-72.1258
2.837333333e+07,-73.8369
2.874666667e+07,-68.2411
2.912000000e+07,-77.4489
2.949333333e+07,-65.1041
2.986666667e+07,-59.2882
3.024000000e+07,-60.7819
3.061333333e+07,-69.8948
3.098666667e+07,-78.9689
3.136000000e+07,-72.2658
3.173333333e+07,-71.4146
3.210666667e+07,-79.3652
3.248000000e+07,-61.523
3.285333333e+07,-60.8149
3.322666667e+07,-74.8948
3.360000000e+07,-73.795
3.397333333e+07,-79.5107
3.434666667e+07,-78.3326
3.472000000e+07,-74.5526
3.509333333e+07,-64.0217
3.546666667e+07,-59.2533
3.584000000e+07,-59.0561
3.621333333e+07,-59.9855
3.658666667e+07,-77.2963
3.696000000e+07,-74.4717
3.733333333e+07,-69.3306
3.770666667e+07,-71.6325
3.808000000e+07,-59.2489
3.845333333e+07,-63.9261
3.882666667e+07,-70.9942
3.920000000e+07,-70.5312
3.957333333e+07,-68.2826
3.994666667e+07,-68.6526
4.032000000e+07,-68.5363
4.069333333e+07,-59.0915
4.106666667e+07,-60.3636
4.144000000e+07,-67.504
4.181333333e+07,-76.7557
4.218666667e+07,-72.1669
4.256000000e+07,-75.7266
4.293333333e+07,-72.2194
4.330666667e+07,-59.8909
4.368000000e+07,-59.3617
4.405333333e+07,-65.2736
4.442666667e+07,-73.1616
4.480000000e+07,-70.2985
4.517333333e+07,-70.8528
4.554666667e+07,-67.7702
4.592000000e+07,-65.0063
4.629333333e+07,-58.162
4.666666667e+07,-58.1012
4.704000000e+07,-69.4818
4.741333333e+07,-72.1856
4.778666667e+07,-65.4393
4.816000000e+07,-65.1664
4.853333333e+07,-69.6872
4.890666667e+07,-60.5826
4.928000000e+07,-59.2782
4.965333333e+07,-71.6853
5.002666667e+07,-71.1236
5.040000000e+07,-75.9272
5.077333333e+07,-76.124
5.114666667e+07,-70.9254
5.152000000e+07,-59.968
5.189333333e+07,-54.8811
5.226666667e+07,-63.2903
5.264000000e+07,-70.6943
5.301333333e+07,-80.1233
5.338666667e+07,-75.3524
5.376000000e+07,-73.2466
5.413333333e+07,-65.4716
5.450666667e+07,-56.1308
5.488000000e+07,-59.084
5.525333333e+07,-79.3016
5.562666667e+07,-83.2026
5.600000000e+07,-75.4795
5.637333333e+07,-79.393
5.674666667e+07,-72.6803
5.712000000e+07,-53.095
5.749333333e+07,-53.1911
5.786666667e+07,-80.4949
5.824000000e+07,-75.6788
5.861333333e+07,-76.1382
5.898666667e+07,-73.2358
5.936000000e+07,-71.7862
5.973333333e+07,-36.8467
6.010666667e+07,-34.5684
6.048000000e+07,-53.4641
6.085333333e+07,-70.8059
6.122666667e+07,-71.6161
6.160000000e+07,-72.1035
6.197333333e+07,-66.8176
6.234666667e+07,-58.9502
6.272000000e+07,-51.9939
6.309333333e+07,-61.1539
6.346666667e+07,-71.6603
6.384000000e+07,-77.1878
6.421333333e+07,-79.1173
6.458666667e+07,-75.3055
6.496000000e+07,-64.854
6.533333333e+07,-54.408
6.570666667e+07,-58.8046
6.608000000e+07,-69.9679
6.645333333e+07,-73.1512
6.682666667e+07,-65.637
6.720000000e+07,-72.5702
6.757333333e+07,-72.1393
6.794666667e+07,-56.8858
6.832000000e+07,-57.6363
6.869333333e+07,-64.9757
6.906666667e+07,-68.8382
6.944000000e+07,-82.5256
6.981333333e+07,-76.8869
7.018666667e+07,-72.9647
7.056000000e+07,-57.0878
7.093333333e+07,-55.5285
7.130666667e+07,-61.5594
7.168000000e+07,-65.9466
7.205333333e+07,-59.6538
7.242666667e+07,-68.5513
7.280000000e+07,-72.8702
7.317333333e+07,-64.0268
7.354666667e+07,-59.0773
7.392000000e+07,-59.5806
7.429333333e+07,-62.7114
7.466666667e+07,-66.7124
7.504000000e+07,-70.8807
7.541333333e+07,-68.3075
7.578666667e+07,-65.4786
7.616000000e+07,-56.1943
7.653333333e+07,-56.4759
7.690666667e+07,-65.9402
7.728000000e+07,-65.2484
7.765333333e+07,-67.1659
7.802666667e+07,-68.2016
7.840000000e+07,-70.6944
7.877333333e+07,-61.09
7.914666667e+07,-56.105
7.952000000e+07,-61.9703
7.989333333e+07,-74.9405
8.026666667e+07,-73.9022
8.064000000e+07,-73.2512
8.101333333e+07,-71.8471
8.138666667e+07,-59.4302
8.176000000e+07,-55.7853
8.213333333e+07,-57.1907
8.250666667e+07,-75.2307
8.288000000e+07,-68.8316
8.325333333e+07,-68.4779
8.362666667e+07,-59.9523
8.400000000e+07,-52.8074
8.437333333e+07,-54.1122
8.474666667e+07,-53.0971
8.512000000e+07,-70.1661
8.549333333e+07,-69.9397
8.586666667e+07,-71.7234
8.624000000e+07,-75.2628
8.661333333e+07,-70.9713
8.698666667e+07,-57.8803
8.736000000e+07,-54.2723
8.773333333e+07,-67.1991
8.810666667e+07,-77.531
8.848000000e+07,-72.3522
8.885333333e+07,-70.9457
8.922666667e+07,-73.5986
8.960000000e+07,-60.4914
8.997333333e+07,-47.7713
9.034666667e+07,-54.3918
9.072000000e+07,-69.2978
9.109333333e+07,-73.1856
9.146666667e+07,-72.2005
9.184000000e+07,-78.3401
9.221333333e+07,-69.2014
9.258666667e+07,-54.52
9.296000000e+07,-57.2481
9.333333333e+07,-74.0502
9.370666667e+07,-76.263
9.408000000e+07,-80.2581
9.445333333e+07,-70.9515
9.482666667e+07,-69.1224
9.520000000e+07,-53.8161
9.557333333e+07,-53.1039
9.594666667e+07,-50.5783
9.632000000e+07,-52.0996
9.669333333e+07,-71.7033
9.706666667e+07,-70.1411
9.744000000e+07,-69.0911
9.781333333e+07,-57.4133
9.818666667e+07,-54.8905
9.856000000e+07,-61.7143
9.893333333e+07,-67.9772
9.930666667e+07,-73.6073
9.968000000e+07,-70.0805
1.000533333e+08,-75.134
1.004266667e+08,-63.6932
1.008000000e+08,-53.8994
1.011733333e+08,-57.2096
1.015466667e+08,-64.5957
1.019200000e+08,-69.1475
1.022933333e+08,-67.7005
1.026666667e+08,-67.4213
1.030400000e+08,-68.1511
1.034133333e+08,-55.5056
1.037866667e+08,-57.2181
1.041600000e+08,-66.6489
1.045333333e+08,-68.9784
1.049066667e+08,-67.8753
1.052800000e+08,-70.9515
1.056533333e+08,-68.9619
1.060266667e+08,-55.7715
1.064000000e+08,-52.7306
1.067733333e+08,-55.0069
1.071466667e+08,-64.3432
1.075200000e+08,-66.122
1.078933333e+08,-51.0913
1.082666667e+08,-53.0835
1.086400000e+08,-63.0255
1.090133333e+08,-54.9091
1.093866667e+08,-54.8259
1.097600000e+08,-69.2601
1.101333333e+08,-69.7953
1.105066667e+08,-66.0075
1.108800000e+08,-66.8381
1.112533333e+08,-66.9012
1.116266667e+08,-52.9788
1.120000000e+08,-51.0379
1.123733333e+08,-65.3537
1.127466667e+08,-68.8488
1.131200000e+08,-67.3891
1.134933333e+08,-68.1616
1.138666667e+08,-66.2773
1.142400000e+08,-58.6364
1.146133333e+08,-52.5182
1.149866667e+08,-62.8661
1.153600000e+08,-67.207
1.157333333e+08,-68.773
1.161066667e+08,-68.4163
1.164800000e+08,-76.8422
1.168533333e+08,-64.5804
1.172266667e+08,-50.1741
1.176000000e+08,-53.6502
1.179733333e+08,-74.3898
1.183466667e+08,-66.088
1.187200000e+08,-65.5775
1.190933333e+08,-75.1645
1.194666667e+08,-60.1521
1.198400000e+08,-36.1735
1.202133333e+08,-36.9297
1.205866667e+08,-67.4062
1.209600000e+08,-72.9197
1.213333333e+08,-72.5591
1.217066667e+08,-65.6042
1.220800000e+08,-63.5462
1.224533333e+08,-51.4475
1.228266667e+08,-49.3806
1.232000000e+08,-66.3405
1.235733333e+08,-69.5386
1.239466667e+08,-69.6272
1.243200000e+08,-72.4368
1.246933333e+08,-70.8087
1.250666667e+08,-58.7231
1.254400000e+08,-51.7041
1.258133333e+08,-58.5001
1.261866667e+08,-69.6162
1.265600000e+08,-72.436
1.269333333e+08,-68.4895
1.273066667e+08,-66.3243
1.276800000e+08,-61.1445
1.280533333e+08,-50.0841
1.284266667e+08,-53.1578
1.288000000e+08,-62.4121
1.291733333e+08,-62.4923
1.295466667e+08,-72.2683
1.299200000e+08,-69.7988
1.302933333e+08,-67.1973
1.306666667e+08,-51.6104
1.310400000e+08,-52.4046
1.314133333e+08,-62.2435
1.317866667e+08,-51.2356
1.321600000e+08,-50.2582
1.325333333e+08,-69.7167
1.329066667e+08,-66.4601
1.332800000e+08,-52.8832
1.336533333e+08,-51.4953
1.340266667e+08,-54.3326
1.344000000e+08,-61.4409
1.347733333e+08,-64.9759
1.351466667e+08,-69.6888
1.355200000e+08,-66.2448
1.358933333e+08,-57.4789
1.362666667e+08,-54.6036
1.366400000e+08,-55.1649
1.370133333e+08,-64.0203
1.373866667e+08,-70.1186
1.377600000e+08,-67.9642
1.381333333e+08,-66.336
1.385066667e+08,-63.6416
1.388800000e+08,-53.035
1.392533333e+08,-50.111
1.396266667e+08,-59.4277
1.400000000e+08,-65.9704
1.403733333e+08,-68.1782
1.407466667e+08,-66.2282
1.411200000e+08,-63.8898
1.414933333e+08,-56.9505
1.418666667e+08,-52.5058
1.422400000e+08,-59.7164
1.426133333e+08,-75.4561
1.429866667e+08,-68.9882
1.433600000e+08,-69.1879
1.437333333e+08,-63.1402
1.441066667e+08,-51.6237
1.444800000e+08,-48.831
1.448533333e+08,-50.8427
1.452266667e+08,-67.973
1.456000000e+08,-70.1641
1.459733333e+08,-68.203
1.463466667e+08,-67.0843
1.467200000e+08,-69.0144
1.470933333e+08,-52.7767
1.474666667e+08,-52.2107
1.478400000e+08,-74.3518
1.482133333e+08,-73.5671
1.485866667e+08,-75.644
1.489600000e+08,-71.8028
1.493333333e+08,-71.7085
1.497066667e+08,-50.9693
1.500800000e+08,-47.9715
1.504533333e+08,-62.6197
1.508266667e+08,-72.8181
1.512000000e+08,-72.7526
1.515733333e+08,-66.5856
1.519466667e+08,-70.2536
1.523200000e+08,-59.0064
1.526933333e+08,-51.5992
1.530666667e+08,-58.6227
1.534400000e+08,-71.6556
1.538133333e+08,-67.1707
1.541866667e+08,-66.9142
1.545600000e+08,-69.8062
1.549333333e+08,-68.363
1.553066667e+08,-48.3595
1.556800000e+08,-50.4221
1.560533333e+08,-50.0256
1.564266667e+08,-66.3133
1.568000000e+08,-68.7823
1.571733333e+08,-69.6024
1.575466667e+08,-72.1614
1.579200000e+08,-51.5142
1.582933333e+08,-51.9971
1.586666667e+08,-68.4415
1.590400000e+08,-70.1614
1.594133333e+08,-65.3595
1.597866667e+08,-64.2821
1.601600000e+08,-63.0442
1.605333333e+08,-51.6592
1.609066667e+08,-49.4672
1.612800000e+08,-53.1639
1.616533333e+08,-64.2319
1.620266667e+08,-62.1585
1.624000000e+08,-67.4261
1.627733333e+08,-64.0446
1.631466667e+08,-61.4952
1.635200000e+08,-54.1233
1.638933333e+08,-55.894
1.642666667e+08,-66.7713
1.646400000e+08,-65.1015
1.650133333e+08,-65.7251
1.653866667e+08,-66.2845
1.657600000e+08,-61.2495
1.661333333e+08,-51.6632
1.665066667e+08,-50.462
1.668800000e+08,-59.9049
1.672533333e+08,-65.7468
1.676266667e+08,-65.098
1.680000000e+08,-67.8833
1.683733333e+08,-67.0492
1.687466667e+08,-57.0616
1.691200000e+08,-53.9825
1.694933333e+08,-58.207
1.698666667e+08,-64.0882
1.702400000e+08,-63.0567
1.706133333e+08,-65.1993
1.709866667e+08,-67.7957
1.713600000e+08,-57.1319
1.717333333e+08,-49.0091
1.721066667e+08,-49.8695
1.724800000e+08,-62.024
1.728533333e+08,-65.2871
1.732266667e+08,-68.7567
1.736000000e+08,-74.3615
1.739733333e+08,-67.3269
1.743466667e+08,-55.192
1.747200000e+08,-53.6736
1.750933333e+08,-70.2702
1.754666667e+08,-70.4095
1.758400000e+08,-66.5894
1.762133333e+08,-66.9902
1.765866667e+08,-74.0261
1.769600000e+08,-53.6539
1.773333333e+08,-47.3208
1.777066667e+08,-58.8559
1.780800000e+08,-64.3028
1.784533333e+08,-68.5011
1.788266667e+08,-68.7792
1.792000000e+08,-69.7153
1.795733333e+08,-58.6574
1.799466667e+08,-45.5492
1.803200000e+08,-50.0931
1.806933333e+08,-73.4857
1.810666667e+08,-69.0359
1.814400000e+08,-67.8839
1.818133333e+08,-69.7647
1.821866667e+08,-65.7398
1.825600000e+08,-46.8672
1.829333333e+08,-48.1144
1.833066667e+08,-65.8217
1.836800000e+08,-67.2987
1.840533333e+08,-72.4096
1.844266667e+08,-72.9922
1.848000000e+08,-67.1577
1.851733333e+08,-54.4528
1.855466667e+08,-53.0954
1.859200000e+08,-63.5137
1.862933333e+08,-72.4889
1.866666667e+08,-70.8949
1.870400000e+08,-64.254
1.874133333e+08,-60.8786
1.877866667e+08,-52.5326
1.881600000e+08,-48.0669
1.885333333e+08,-54.0629
1.889066667e+08,-63.6735
1.892800000e+08,-66.1671
1.896533333e+08,-63.6346
1.900266667e+08,-69.3281
1.904000000e+08,-64.8699
1.907733333e+08,-53.1022
1.911466667e+08,-54.823
1.915200000e+08,-64.8352
1.918933333e+08,-54.22
1.922666667e+08,-51.7609
1.926400000e+08,-64.0132
1.930133333e+08,-62.0068
1.933866667e+08,-49.5027
1.937600000e+08,-49.7583
1.941333333e+08,-59.9418
1.945066667e+08,-62.3477
1.948800000e+08,-63.7412
1.952533333e+08,-64.2039
1.956266667e+08,-63.2545
1.960000000e+08,-56.6092
1.963733333e+08,-55.3463
1.967466667e+08,-57.3515
1.971200000e+08,-65.4771
1.974933333e+08,-65.4187
1.978666667e+08,-71.8841
1.982400000e+08,-69.0187
1.986133333e+08,-56.9507
1.989866667e+08,-48.0853
1.993600000e+08,-47.6916
1.997333333e+08,-60.9465
2.001066667e+08,-66.8316
2.004800000e+08,-68.5816
2.008533333e+08,-70.2179
2.012266667e+08,-64.0169
2.016000000e+08,-55.6132
2.019733333e+08,-53.86
2.023466667e+08,-65.3256
2.027200000e+08,-70.5289
2.030933333e+08,-71.682
2.034666667e+08,-70.0987
2.038400000e+08,-47.8463
2.042133333e+08,-49.1307
2.045866667e+08,-46.6661
2.049600000e+08,-53.2467
2.053333333e+08,-69.9472
2.057066667e+08,-70.3555
2.060800000e+08,-70.2081
2.064533333e+08,-64.6089
2.068266667e+08,-64.4016
2.072000000e+08,-51.6615
2.075733333e+08,-54.6673
2.079466667e+08,-75.8965
2.083200000e+08,-70.4268
2.086933333e+08,-68.163
2.090666667e+08,-68.3319
2.094400000e+08,-67.7626
2.098133333e+08,-46.5985
2.101866667e+08,-46.5852
2.105600000e+08,-66.8102
2.109333333e+08,-67.5443
2.113066667e+08,-76.9895
2.116800000e+08,-63.674
2.120533333e+08,-64.1369
2.124266667e+08,-54.0511
2.128000000e+08,-51.4584
2.131733333e+08,-65.3126
2.135466667e+08,-76.0273
2.139200000e+08,-67.7963
2.142933333e+08,-64.5395
2.146666667e+08,-66.8439
2.150400000e+08,-52.9423
2.154133333e+08,-46.1698
2.157866667e+08,-53.4605
2.161600000e+08,-64.4165
2.165333333e+08,-65.8106
2.169066667e+08,-63.0989
2.172800000e+08,-64.171
2.176533333e+08,-67.1625
2.180266667e+08,-53.2421
2.184000000e+08,-55.0551
2.187733333e+08,-67.3201
2.191466667e+08,-71.701
2.195200000e+08,-64.1082
2.198933333e+08,-64.1123
2.202666667e+08,-63.5897
2.206400000e+08,-47.3483
2.210133333e+08,-47.9009
2.213866667e+08,-56.3738
2.217600000e+08,-63.8525
2.221333333e+08,-62.2141
2.225066667e+08,-62.792
2.228800000e+08,-66.0896
2.232533333e+08,-55.6267
2.236266667e+08,-53.5579
2.240000000e+08,-56.5693
2.243733333e+08,-67.7533
2.247466667e+08,-65.7466
2.251200000e+08,-67.0791
2.254933333e+08,-64.241
2.258666667e+08,-55.8328
2.262400000e+08,-50.0355
2.266133333e+08,-49.1798
2.269866667e+08,-61.2731
2.273600000e+08,-64.6704
2.277333333e+08,-50.2371
2.281066667e+08,-48.0181
2.284800000e+08,-64.7729
2.288533333e+08,-55.8087
2.292266667e+08,-53.9528
2.296000000e+08,-65.0918
2.299733333e+08,-67.3621
2.303466667e+08,-65.5298
2.307200000e+08,-63.61
2.310933333e+08,-63.2653
2.314666667e+08,-53.843
2.318400000e+08,-47.0691
2.322133333e+08,-52.4248
2.325866667e+08,-65.5382
2.329600000e+08,-66.2244
2.333333333e+08,-70.8525
2.337066667e+08,-68.4284
2.340800000e+08,-66.1465
2.344533333e+08,-54.0386
2.348266667e+08,-55.198
2.352000000e+08,-71.0783
2.355733333e+08,-72.8463
2.359466667e+08,-70.89
2.363200000e+08,-79.4674
2.366933333e+08,-69.4951
2.370666667e+08,-47.7394
2.374400000e+08,-46.5046
2.378133333e+08,-69.8367
2.381866667e+08,-70.5461
2.385600000e+08,-71.3813
2.389333333e+08,-72.6222
2.393066667e+08,-72.5108
2.396800000e+08,-53.023
2.400533333e+08,-50.485
2.404266667e+08,-51.7666
2.408000000e+08,-72.4968
2.411733333e+08,-74.8018
2.415466667e+08,-73.0055
2.419200000e+08,-72.2962
2.422933333e+08,-58.5392
2.426666667e+08,-46.4472
2.430400000e+08,-51.687
2.434133333e+08,-66.3452
2.437866667e+08,-67.2943
2.441600000e+08,-72.0003
2.445333333e+08,-68.5038
2.449066667e+08,-68.4621
2.452800000e+08,-53.6457
2.456533333e+08,-54.7304
2.460266667e+08,-65.0821
2.464000000e+08,-67.1865
2.467733333e+08,-64.5571
2.471466667e+08,-67.927
2.475200000e+08,-63.1499
2.478933333e+08,-48.518
2.482666667e+08,-47.7921
2.486400000e+08,-56.9477
2.490133333e+08,-61.8421
2.493866667e+08,-73.1199
2.497600000e+08,-70.7354
2.501333333e+08,-68.5359
2.505066667e+08,-58.7955
2.508800000e+08,-54.1523
2.512533333e+08,-58.5648
2.516266667e+08,-55.8814
2.520000000e+08,-48.3963
2.523733333e+08,-58.9896
2.527466667e+08,-63.6612
2.531200000e+08,-59.397
2.534933333e+08,-49.5992
2.538666667e+08,-50.4035
2.542400000e+08,-60.1105
2.546133333e+08,-63.0316
2.549866667e+08,-65.6123
2.553600000e+08,-65.4378
2.557333333e+08,-67.4361
2.561066667e+08,-57.5435
2.564800000e+08,-55.9721
2.568533333e+08,-66.1846
2.572266667e+08,-66.4965
2.576000000e+08,-70.5048
2.579733333e+08,-65.0799
2.583466667e+08,-64.5442
2.587200000e+08,-53.3784
2.590933333e+08,-49.3067
2.594666667e+08,-51.7282
2.598400000e+08,-65.3504
2.602133333e+08,-65.8817
2.605866667e+08,-67.3073
2.609600000e+08,-66.2571
2.613333333e+08,-64.7966
2.617066667e+08,-54.5268
2.620800000e+08,-54.7889
2.624533333e+08,-66.4618
2.628266667e+08,-73.3208
2.632000000e+08,-69.986
2.635733333e+08,-69.188
2.639466667e+08,-57.0424
2.643200000e+08,-48.4866
2.646933333e+08,-47.453
2.650666667e+08,-63.4783
2.654400000e+08,-69.4331
2.658133333e+08,-70.29
2.661866667e+08,-68.9497
2.665600000e+08,-67.8141
2.669333333e+08,-57.8572
2.673066667e+08,-53.0551
2.676800000e+08,-62.7165
2.680533333e+08,-76.7231
2.684266667e+08,-74.2071
2.688000000e+08,-72.3277
2.691733333e+08,-71.3916
2.695466667e+08,-64.4774
2.699200000e+08,-49.8229
2.702933333e+08,-52.7888
2.706666667e+08,-77.0612
2.710400000e+08,-69.319
2.714133333e+08,-70.5395
2.717866667e+08,-70.5371
2.721600000e+08,-71.4048
2.725333333e+08,-54.0714
2.729066667e+08,-54.2831
2.732800000e+08,-70.3351
2.736533333e+08,-72.0147
2.740266667e+08,-70.7159
2.744000000e+08,-72.1004
2.747733333e+08,-68.7537
2.751466667e+08,-50.0215
2.755200000e+08,-48.1694
2.758933333e+08,-45.7146
2.762666667e+08,-47.8661
2.766400000e+08,-69.497
2.770133333e+08,-69.122
2.773866667e+08,-68.2204
2.777600000e+08,-61.4611
2.781333333e+08,-54.9509
2.785066667e+08,-60.5826
2.788800000e+08,-67.5022
2.792533333e+08,-66.4523
2.796266667e+08,-72.3459
2.800000000e+08,-72.2686

