Model,MDO3104
Firmware Version,1.30

Waveform Type,RF_FD
Point Format,Y
Horizontal Units,Hz
Horizontal Scale,2.8e+07
,
Sample Interval,373333
Record Length,751
Gating,0.133155792277% to 100.0%
Probe Attenuation,1
Vertical Units,dBm
Vertical Offset,0
Vertical Scale,10
Vertical Position,0
Center Frequency,1.4e+08
Span,2.8e+08
Reference Level,-15
Label,
FREQUENCY,FD NORM
0.000000000e+00,-68.147
3.733333333e+05,-76.1204
7.466666667e+05,-78.6339
1.120000000e+06,-77.3968
1.493333333e+06,-76.1117
1.866666667e+06,-75.3278
2.240000000e+06,-78.2886
2.613333333e+06,-62.4173
2.986666667e+06,-63.1491
3.360000000e+06,-62.0837
3.733333333e+06,-62.2811
4.106666667e+06,-66.1251
4.480000000e+06,-63.9024
4.853333333e+06,-75.97
5.226666667e+06,-64.3542
5.600000000e+06,-64.3066
5.973333333e+06,-64.5368
6.346666667e+06,-65.5903
6.720000000e+06,-68.5521
7.093333333e+06,-72.0986
7.466666667e+06,-67.9131
7.840000000e+06,-63.5774
8.213333333e+06,-61.2183
8.586666667e+06,-61.3128
8.960000000e+06,-69.0924
9.333333333e+06,-67.9518
9.706666667e+06,-66.9551
1.008000000e+07,-59.9135
1.045333333e+07,-58.6666
1.082666667e+07,-64.2497
1.120000000e+07,-65.4306
1.157333333e+07,-68.2933
1.194666667e+07,-60.4999
1.232000000e+07,-61.4177
1.269333333e+07,-69.0379
1.306666667e+07,-68.7912
1.344000000e+07,-68.8356
1.381333333e+07,-65.3899
1.418666667e+07,-69.5148
1.456000000e+07,-69.2015
1.493333333e+07,-72.6358
1.530666667e+07,-65.5241
1.568000000e+07,-65.7978
1.605333333e+07,-66.0816
1.642666667e+07,-68.3404
1.680000000e+07,-69.1551
1.717333333e+07,-67.4387
1.754666667e+07,-62.1116
1.792000000e+07,-61.0143
1.829333333e+07,-59.8133
1.866666667e+07,-62.5604
1.904000000e+07,-67.0872
1.941333333e+07,-71.2818
1.978666667e+07,-71.8674
2.016000000e+07,-74.9835
2.053333333e+07,-69.8395
2.090666667e+07,-73.998
2.128000000e+07,-64.2831
2.165333333e+07,-65.626
2.202666667e+07,-68.6402
2.240000000e+07,-69.5379
2.277333333e+07,-67.9622
2.314666667e+07,-68.0891
2.352000000e+07,-65.6224
2.389333333e+07,-67.0982
2.426666667e+07,-60.5289
2.464000000e+07,-59.4825
2.501333333e+07,-54.254
2.538666667e+07,-66.1036
2.576000000e+07,-69.8011
2.613333333e+07,-63.8152
2.650666667e+07,-72.3826
2.688000000e+07,-69.8668
2.725333333e+07,-59.2814
2.762666667e+07,-63.0404
2.800000000e+07,-72.3072
2.837333333e+07,-67.1528
2.874666667e+07,-71.0125
2.912000000e+07,-66.3851
2.949333333e+07,-63.8557
2.986666667e+07,-56.7069
3.024000000e+07,-56.1069
3.061333333e+07,-62.5086
3.098666667e+07,-67.5215
3.136000000e+07,-67.3982
3.173333333e+07,-67.6386
3.210666667e+07,-66.993
3.248000000e+07,-59.1095
3.285333333e+07,-60.6454
3.322666667e+07,-63.6364
3.360000000e+07,-62.1249
3.397333333e+07,-57.7816
3.434666667e+07,-58.6482
3.472000000e+07,-61.3907
3.509333333e+07,-63.4751
3.546666667e+07,-58.37
3.584000000e+07,-48.9871
3.621333333e+07,-49.4071
3.658666667e+07,-73.122
3.696000000e+07,-69.2462
3.733333333e+07,-60.2357
3.770666667e+07,-61.7433
3.808000000e+07,-55.8817
3.845333333e+07,-57.1456
3.882666667e+07,-71.3066
3.920000000e+07,-61.0734
3.957333333e+07,-62.8176
3.994666667e+07,-62.3375
4.032000000e+07,-59.976
4.069333333e+07,-63.2373
4.106666667e+07,-61.6173
4.144000000e+07,-62.0316
4.181333333e+07,-56.9242
4.218666667e+07,-60.1133
4.256000000e+07,-67.0383
4.293333333e+07,-70.1506
4.330666667e+07,-61.9476
4.368000000e+07,-62.748
4.405333333e+07,-64.1638
4.442666667e+07,-66.2254
4.480000000e+07,-68.7241
4.517333333e+07,-65.9672
4.554666667e+07,-60.0648
4.592000000e+07,-55.5581
4.629333333e+07,-51.8052
4.666666667e+07,-53.8771
4.704000000e+07,-58.8091
4.741333333e+07,-58.6168
4.778666667e+07,-42.0107
4.816000000e+07,-40.8812
4.853333333e+07,-55.955
4.890666667e+07,-54.2678
4.928000000e+07,-49.1967
4.965333333e+07,-53.1386
5.002666667e+07,-51.7354
5.040000000e+07,-54.3096
5.077333333e+07,-62
5.114666667e+07,-55.6767
5.152000000e+07,-61.9451
5.189333333e+07,-53.5979
5.226666667e+07,-57.61
5.264000000e+07,-55.6839
5.301333333e+07,-54.6904
5.338666667e+07,-55.0346
5.376000000e+07,-52.6046
5.413333333e+07,-56.7011
5.450666667e+07,-51.3135
5.488000000e+07,-61.5566
5.525333333e+07,-61.5226
5.562666667e+07,-61.5764
5.600000000e+07,-63.4039
5.637333333e+07,-57.2219
5.674666667e+07,-56.4921
5.712000000e+07,-52.6463
5.749333333e+07,-54.6679
5.786666667e+07,-53.6403
5.824000000e+07,-50.3435
5.861333333e+07,-51.6155
5.898666667e+07,-51.9959
5.936000000e+07,-53.0158
5.973333333e+07,-31.9587
6.010666667e+07,-29.5317
6.048000000e+07,-49.5601
6.085333333e+07,-54.5044
6.122666667e+07,-48.9263
6.160000000e+07,-49.7372
6.197333333e+07,-51.7027
6.234666667e+07,-51.7927
6.272000000e+07,-52.4426
6.309333333e+07,-58.9834
6.346666667e+07,-57.9184
6.384000000e+07,-55.2216
6.421333333e+07,-59.6219
6.458666667e+07,-57.2417
6.496000000e+07,-56.4742
6.533333333e+07,-52.8868
6.570666667e+07,-57.7799
6.608000000e+07,-55.0376
6.645333333e+07,-51.2037
6.682666667e+07,-54.8543
6.720000000e+07,-57.9066
6.757333333e+07,-57.0753
6.794666667e+07,-55.1023
6.832000000e+07,-53.3815
6.869333333e+07,-55.8486
6.906666667e+07,-63.3185
6.944000000e+07,-57.5835
6.981333333e+07,-57.4669
7.018666667e+07,-53.9362
7.056000000e+07,-54.2385
7.093333333e+07,-52.6993
7.130666667e+07,-56.4577
7.168000000e+07,-49.7179
7.205333333e+07,-43.9224
7.242666667e+07,-54.5724
7.280000000e+07,-63.789
7.317333333e+07,-55.0424
7.354666667e+07,-52.5197
7.392000000e+07,-54.0162
7.429333333e+07,-63.8559
7.466666667e+07,-64.1473
7.504000000e+07,-61.2974
7.541333333e+07,-69.9168
7.578666667e+07,-64.0512
7.616000000e+07,-56.2634
7.653333333e+07,-55.3128
7.690666667e+07,-58.8031
7.728000000e+07,-59.1816
7.765333333e+07,-58.0196
7.802666667e+07,-53.5164
7.840000000e+07,-52.7943
7.877333333e+07,-57.7681
7.914666667e+07,-55.7942
7.952000000e+07,-63.9949
7.989333333e+07,-59.6523
8.026666667e+07,-63.689
8.064000000e+07,-61.9949
8.101333333e+07,-63.8351
8.138666667e+07,-57.0265
8.176000000e+07,-53.7899
8.213333333e+07,-57.0078
8.250666667e+07,-61.7017
8.288000000e+07,-62.1618
8.325333333e+07,-61.135
8.362666667e+07,-49.5453
8.400000000e+07,-42.2332
8.437333333e+07,-47.7593
8.474666667e+07,-58.1058
8.512000000e+07,-57.1898
8.549333333e+07,-55.4925
8.586666667e+07,-57.8887
8.624000000e+07,-58.7229
8.661333333e+07,-63.6315
8.698666667e+07,-54.2831
8.736000000e+07,-51.9096
8.773333333e+07,-68.2063
8.810666667e+07,-64.7713
8.848000000e+07,-71.2309
8.885333333e+07,-61.6036
8.922666667e+07,-63.4492
8.960000000e+07,-65.1207
8.997333333e+07,-48.3732
9.034666667e+07,-51.8767
9.072000000e+07,-69.6513
9.109333333e+07,-67.8277
9.146666667e+07,-67.6404
9.184000000e+07,-67.9378
9.221333333e+07,-72.7823
9.258666667e+07,-53.0491
9.296000000e+07,-54.6223
9.333333333e+07,-70.7228
9.370666667e+07,-65.5997
9.408000000e+07,-62.1821
9.445333333e+07,-61.2528
9.482666667e+07,-60.9216
9.520000000e+07,-51.5055
9.557333333e+07,-50.3016
9.594666667e+07,-46.7972
9.632000000e+07,-51.0507
9.669333333e+07,-59.6076
9.706666667e+07,-62.1067
9.744000000e+07,-58.8328
9.781333333e+07,-58.4785
9.818666667e+07,-54.7485
9.856000000e+07,-61.2815
9.893333333e+07,-63.1791
9.930666667e+07,-63.6746
9.968000000e+07,-67.4034
1.000533333e+08,-66.5603
1.004266667e+08,-64.3295
1.008000000e+08,-50.9603
1.011733333e+08,-52.0814
1.015466667e+08,-64.8811
1.019200000e+08,-59.7661
1.022933333e+08,-60.9602
1.026666667e+08,-63.6183
1.030400000e+08,-64.0416
1.034133333e+08,-54.6169
1.037866667e+08,-55.1026
1.041600000e+08,-62.373
1.045333333e+08,-64.4665
1.049066667e+08,-68.7117
1.052800000e+08,-62.732
1.056533333e+08,-61.4987
1.060266667e+08,-53.7994
1.064000000e+08,-50.6892
1.067733333e+08,-54.1566
1.071466667e+08,-65.3955
1.075200000e+08,-58.6688
1.078933333e+08,-49.6467
1.082666667e+08,-56.415
1.086400000e+08,-55.8479
1.090133333e+08,-53.7826
1.093866667e+08,-55.8852
1.097600000e+08,-58.9461
1.101333333e+08,-59.0594
1.105066667e+08,-60.6581
1.108800000e+08,-65.3378
1.112533333e+08,-64.0379
1.116266667e+08,-51.3558
1.120000000e+08,-50.583
1.123733333e+08,-67.5226
1.127466667e+08,-64.5021
1.131200000e+08,-61.0727
1.134933333e+08,-62.2964
1.138666667e+08,-63.5038
1.142400000e+08,-54.1927
1.146133333e+08,-52.3893
1.149866667e+08,-67.3101
1.153600000e+08,-70.0151
1.157333333e+08,-65.2002
1.161066667e+08,-72.7314
1.164800000e+08,-66.6442
1.168533333e+08,-58.7167
1.172266667e+08,-49.3157
1.176000000e+08,-54.0243
1.179733333e+08,-75.0067
1.183466667e+08,-63.2822
1.187200000e+08,-62.4478
1.190933333e+08,-70.5897
1.194666667e+08,-61.0161
1.198400000e+08,-37.5604
1.202133333e+08,-38.4532
1.205866667e+08,-64.8368
1.209600000e+08,-69.0068
1.213333333e+08,-61.3512
1.217066667e+08,-61.0427
1.220800000e+08,-61.4769
1.224533333e+08,-50.8992
1.228266667e+08,-48.9317
1.232000000e+08,-64.797
1.235733333e+08,-68.2356
1.239466667e+08,-66.3091
1.243200000e+08,-71.3341
1.246933333e+08,-62.366
1.250666667e+08,-61.8557
1.254400000e+08,-53.3261
1.258133333e+08,-62.7412
1.261866667e+08,-61.4139
1.265600000e+08,-60.9226
1.269333333e+08,-64.2898
1.273066667e+08,-67.0065
1.276800000e+08,-66.5562
1.280533333e+08,-49.5409
1.284266667e+08,-51.7795
1.288000000e+08,-62.6789
1.291733333e+08,-65.1972
1.295466667e+08,-64.4545
1.299200000e+08,-62.4521
1.302933333e+08,-60.0422
1.306666667e+08,-51.6587
1.310400000e+08,-51.7663
1.314133333e+08,-59.2007
1.317866667e+08,-60.1244
1.321600000e+08,-57.2791
1.325333333e+08,-64.4003
1.329066667e+08,-62.2398
1.332800000e+08,-52.3609
1.336533333e+08,-49.9252
1.340266667e+08,-53.5294
1.344000000e+08,-61.5896
1.347733333e+08,-66.1103
1.351466667e+08,-62.58
1.355200000e+08,-66.2939
1.358933333e+08,-60.0821
1.362666667e+08,-52.3357
1.366400000e+08,-52.8157
1.370133333e+08,-61.6749
1.373866667e+08,-65.585
1.377600000e+08,-68.0336
1.381333333e+08,-67.7226
1.385066667e+08,-67.1
1.388800000e+08,-50.6481
1.392533333e+08,-49.4672
1.396266667e+08,-65.5361
1.400000000e+08,-62.7367
1.403733333e+08,-63.1606
1.407466667e+08,-64.6362
1.411200000e+08,-64.293
1.414933333e+08,-56.3316
1.418666667e+08,-51.8806
1.422400000e+08,-58.6377
1.426133333e+08,-62.1671
1.429866667e+08,-63.6489
1.433600000e+08,-67.4152
1.437333333e+08,-51.1021
1.441066667e+08,-46.5533
1.444800000e+08,-49.7767
1.448533333e+08,-53.8021
1.452266667e+08,-55.8946
1.456000000e+08,-56.9987
1.459733333e+08,-58.95
1.463466667e+08,-59.2187
1.467200000e+08,-67.9742
1.470933333e+08,-51.3787
1.474666667e+08,-51.2609
1.478400000e+08,-64.5957
1.482133333e+08,-67.6676
1.485866667e+08,-62.6382
1.489600000e+08,-61.6223
1.493333333e+08,-67.5674
1.497066667e+08,-50.0808
1.500800000e+08,-47.3578
1.504533333e+08,-62.5297
1.508266667e+08,-61.9701
1.512000000e+08,-69.302
1.515733333e+08,-65.5917
1.519466667e+08,-65.4799
1.523200000e+08,-61.446
1.526933333e+08,-51.4471
1.530666667e+08,-56.9859
1.534400000e+08,-73.705
1.538133333e+08,-66.3147
1.541866667e+08,-61.9878
1.545600000e+08,-64.9519
1.549333333e+08,-64.4092
1.553066667e+08,-49.1757
1.556800000e+08,-47.2594
1.560533333e+08,-43.2198
1.564266667e+08,-54.3399
1.568000000e+08,-59.5097
1.571733333e+08,-57.393
1.575466667e+08,-56.7083
1.579200000e+08,-50.3885
1.582933333e+08,-49.7899
1.586666667e+08,-59.2938
1.590400000e+08,-63.7013
1.594133333e+08,-60.0892
1.597866667e+08,-63.2946
1.601600000e+08,-62.8595
1.605333333e+08,-54.4792
1.609066667e+08,-49.1843
1.612800000e+08,-52.0349
1.616533333e+08,-62.1449
1.620266667e+08,-60.5284
1.624000000e+08,-62.5356
1.627733333e+08,-66.5946
1.631466667e+08,-62.4198
1.635200000e+08,-52.6711
1.638933333e+08,-53.1257
1.642666667e+08,-61.8241
1.646400000e+08,-59.9389
1.650133333e+08,-66.2236
1.653866667e+08,-61.0387
1.657600000e+08,-64.0909
1.661333333e+08,-49.3053
1.665066667e+08,-48.6491
1.668800000e+08,-61.4111
1.672533333e+08,-62.8994
1.676266667e+08,-56.1567
1.680000000e+08,-49.7612
1.683733333e+08,-60.6909
1.687466667e+08,-52.6902
1.691200000e+08,-51.6868
1.694933333e+08,-56.8844
1.698666667e+08,-58.2383
1.702400000e+08,-60.7424
1.706133333e+08,-58.9525
1.709866667e+08,-65.863
1.713600000e+08,-56.442
1.717333333e+08,-47.4017
1.721066667e+08,-48.8449
1.724800000e+08,-61.5255
1.728533333e+08,-62.8047
1.732266667e+08,-63.7628
1.736000000e+08,-64.5097
1.739733333e+08,-64.7011
1.743466667e+08,-52.5321
1.747200000e+08,-51.7777
1.750933333e+08,-66.5005
1.754666667e+08,-66.7283
1.758400000e+08,-70.5858
1.762133333e+08,-70.5476
1.765866667e+08,-65.8034
1.769600000e+08,-52.4197
1.773333333e+08,-46.913
1.777066667e+08,-60.8447
1.780800000e+08,-67.4163
1.784533333e+08,-61.3725
1.788266667e+08,-61.6986
1.792000000e+08,-66.3322
1.795733333e+08,-51.7497
1.799466667e+08,-38.4944
1.803200000e+08,-42.8889
1.806933333e+08,-61.4947
1.810666667e+08,-61.3709
1.814400000e+08,-62.7961
1.818133333e+08,-61.7597
1.821866667e+08,-76.6232
1.825600000e+08,-47.1273
1.829333333e+08,-47.9208
1.833066667e+08,-63.2503
1.836800000e+08,-64.5063
1.840533333e+08,-62.1986
1.844266667e+08,-67.1206
1.848000000e+08,-66.3952
1.851733333e+08,-54.5625
1.855466667e+08,-53.0963
1.859200000e+08,-66.3557
1.862933333e+08,-67.8596
1.866666667e+08,-66.5382
1.870400000e+08,-67.0538
1.874133333e+08,-66.5634
1.877866667e+08,-54.3601
1.881600000e+08,-48.5265
1.885333333e+08,-55.277
1.889066667e+08,-59.0857
1.892800000e+08,-57.9084
1.896533333e+08,-65.6404
1.900266667e+08,-64.8358
1.904000000e+08,-59.7004
1.907733333e+08,-53.6693
1.911466667e+08,-54.2813
1.915200000e+08,-66.5829
1.918933333e+08,-59.5588
1.922666667e+08,-57.6087
1.926400000e+08,-62.5971
1.930133333e+08,-60.3623
1.933866667e+08,-49.2196
1.937600000e+08,-49.0702
1.941333333e+08,-58.3325
1.945066667e+08,-65.1309
1.948800000e+08,-61.1832
1.952533333e+08,-59.9788
1.956266667e+08,-65.9314
1.960000000e+08,-56.222
1.963733333e+08,-53.1977
1.967466667e+08,-56.5625
1.971200000e+08,-62.6196
1.974933333e+08,-64.5803
1.978666667e+08,-60.646
1.982400000e+08,-69.3898
1.986133333e+08,-55.4809
1.989866667e+08,-47.5159
1.993600000e+08,-47.7716
1.997333333e+08,-62.4104
2.001066667e+08,-60.7468
2.004800000e+08,-64.0248
2.008533333e+08,-61.6842
2.012266667e+08,-70.6087
2.016000000e+08,-53.9552
2.019733333e+08,-53.0457
2.023466667e+08,-60.8688
2.027200000e+08,-66.0206
2.030933333e+08,-59.1292
2.034666667e+08,-58.4044
2.038400000e+08,-57.8299
2.042133333e+08,-52.9333
2.045866667e+08,-46.3642
2.049600000e+08,-57.4536
2.053333333e+08,-57.5468
2.057066667e+08,-59.1806
2.060800000e+08,-57.2169
2.064533333e+08,-56.4469
2.068266667e+08,-70.8429
2.072000000e+08,-52.6163
2.075733333e+08,-55.2066
2.079466667e+08,-65.0833
2.083200000e+08,-61.2397
2.086933333e+08,-58.4423
2.090666667e+08,-69.3206
2.094400000e+08,-64.7739
2.098133333e+08,-46.6582
2.101866667e+08,-46.8217
2.105600000e+08,-65.9437
2.109333333e+08,-62.6329
2.113066667e+08,-64.9262
2.116800000e+08,-69.4184
2.120533333e+08,-64.6929
2.124266667e+08,-56.1722
2.128000000e+08,-53.6943
2.131733333e+08,-66.4661
2.135466667e+08,-61.1938
2.139200000e+08,-63.8546
2.142933333e+08,-67.0882
2.146666667e+08,-66.764
2.150400000e+08,-55.0113
2.154133333e+08,-46.8598
2.157866667e+08,-51.5813
2.161600000e+08,-51.189
2.165333333e+08,-60.1327
2.169066667e+08,-60.8841
2.172800000e+08,-57.0706
2.176533333e+08,-58.0892
2.180266667e+08,-51.1711
2.184000000e+08,-52.2244
2.187733333e+08,-59.5266
2.191466667e+08,-62.9125
2.195200000e+08,-63.4115
2.198933333e+08,-59.9655
2.202666667e+08,-62.1768
2.206400000e+08,-48.3829
2.210133333e+08,-48.0195
2.213866667e+08,-56.6893
2.217600000e+08,-62.1399
2.221333333e+08,-63.2784
2.225066667e+08,-60.4982
2.228800000e+08,-67.4175
2.232533333e+08,-58.8818
2.236266667e+08,-53.6376
2.240000000e+08,-54.8503
2.243733333e+08,-63.0327
2.247466667e+08,-62.5907
2.251200000e+08,-64.2445
2.254933333e+08,-61.8532
2.258666667e+08,-58.7635
2.262400000e+08,-46.9067
2.266133333e+08,-46.6546
2.269866667e+08,-62.907
2.273600000e+08,-57.5879
2.277333333e+08,-52.1505
2.281066667e+08,-47.1174
2.284800000e+08,-58.8116
2.288533333e+08,-55.1341
2.292266667e+08,-52.3363
2.296000000e+08,-65.7982
2.299733333e+08,-58.3759
2.303466667e+08,-62.1134
2.307200000e+08,-60.6684
2.310933333e+08,-65.5093
2.314666667e+08,-51.4896
2.318400000e+08,-46.4601
2.322133333e+08,-53.6844
2.325866667e+08,-63.4579
2.329600000e+08,-63.3538
2.333333333e+08,-62.594
2.337066667e+08,-60.9297
2.340800000e+08,-60.2708
2.344533333e+08,-52.1095
2.348266667e+08,-54.0736
2.352000000e+08,-67.1463
2.355733333e+08,-62.7734
2.359466667e+08,-67.1047
2.363200000e+08,-67.0869
2.366933333e+08,-67.2131
2.370666667e+08,-46.9706
2.374400000e+08,-46.0256
2.378133333e+08,-66.035
2.381866667e+08,-67.3967
2.385600000e+08,-60.8658
2.389333333e+08,-64.6228
2.393066667e+08,-64.4766
2.396800000e+08,-53.1474
2.400533333e+08,-51.1295
2.404266667e+08,-53.8682
2.408000000e+08,-67.27
2.411733333e+08,-65.4306
2.415466667e+08,-67.9459
2.419200000e+08,-66.0417
2.422933333e+08,-60.8769
2.426666667e+08,-45.9729
2.430400000e+08,-50.3575
2.434133333e+08,-65.4502
2.437866667e+08,-65.403
2.441600000e+08,-67.8962
2.445333333e+08,-67.0796
2.449066667e+08,-69.2705
2.452800000e+08,-51.8822
2.456533333e+08,-53.3771
2.460266667e+08,-61.6094
2.464000000e+08,-72.358
2.467733333e+08,-65.8472
2.471466667e+08,-69.9014
2.475200000e+08,-63.9511
2.478933333e+08,-48.8395
2.482666667e+08,-47.7332
2.486400000e+08,-56.3733
2.490133333e+08,-62.1805
2.493866667e+08,-63.0722
2.497600000e+08,-64.4651
2.501333333e+08,-68.5362
2.505066667e+08,-62.6874
2.508800000e+08,-55.4791
2.512533333e+08,-57.5397
2.516266667e+08,-51.2772
2.520000000e+08,-43.4996
2.523733333e+08,-51.6635
2.527466667e+08,-65.3214
2.531200000e+08,-61.3923
2.534933333e+08,-51.0445
2.538666667e+08,-51.4369
2.542400000e+08,-55.997
2.546133333e+08,-63.0296
2.549866667e+08,-61.0541
2.553600000e+08,-60.6472
2.557333333e+08,-66.8533
2.561066667e+08,-56.0424
2.564800000e+08,-55.104
2.568533333e+08,-61.1697
2.572266667e+08,-62.0903
2.576000000e+08,-65.0193
2.579733333e+08,-61.8507
2.583466667e+08,-64.907
2.587200000e+08,-52.6821
2.590933333e+08,-47.3859
2.594666667e+08,-51.2854
2.598400000e+08,-62.4271
2.602133333e+08,-64.1326
2.605866667e+08,-62.8122
2.609600000e+08,-63.0343
2.613333333e+08,-63.5285
2.617066667e+08,-53.3428
2.620800000e+08,-54.4252
2.624533333e+08,-61.9093
2.628266667e+08,-64.9818
2.632000000e+08,-62.9972
2.635733333e+08,-61.834
2.639466667e+08,-48.1096
2.643200000e+08,-48.9318
2.646933333e+08,-46.782
2.650666667e+08,-64.2484
2.654400000e+08,-59.8195
2.658133333e+08,-59.4736
2.661866667e+08,-60.5655
2.665600000e+08,-61.2751
2.669333333e+08,-57.8805
2.673066667e+08,-52.9105
2.676800000e+08,-61.339
2.680533333e+08,-63.8966
2.684266667e+08,-65.6903
2.688000000e+08,-65.639
2.691733333e+08,-62.4323
2.695466667e+08,-61.2901
2.699200000e+08,-44.8706
2.702933333e+08,-48.7058
2.706666667e+08,-68.4926
2.710400000e+08,-64.9805
2.714133333e+08,-64.3784
2.717866667e+08,-61.0976
2.721600000e+08,-65.0706
2.725333333e+08,-53.9288
2.729066667e+08,-54.9747
2.732800000e+08,-66.8191
2.736533333e+08,-64.8999
2.740266667e+08,-65.9672
2.744000000e+08,-64.0541
2.747733333e+08,-65.0553
2.751466667e+08,-50.7008
2.755200000e+08,-48.8448
2.758933333e+08,-46.4784
2.762666667e+08,-49.8467
2.766400000e+08,-67.612
2.770133333e+08,-70.2034
2.773866667e+08,-62.8572
2.777600000e+08,-58.3565
2.781333333e+08,-53.9469
2.785066667e+08,-59.1162
2.788800000e+08,-66.5899
2.792533333e+08,-64.3215
2.796266667e+08,-66.4275
2.800000000e+08,-66.5012

