Model,MDO3104
Firmware Version,1.30

Waveform Type,RF_FD
Point Format,Y
Horizontal Units,Hz
Horizontal Scale,2.8e+07
,
Sample Interval,373333
Record Length,751
Gating,0.133155792277% to 100.0%
Probe Attenuation,1
Vertical Units,dBm
Vertical Offset,0
Vertical Scale,10
Vertical Position,0
Center Frequency,1.4e+08
Span,2.8e+08
Reference Level,-15
Label,
FREQUENCY,FD NORM
0.000000000e+00,-58.4499
3.733333333e+05,-67.5802
7.466666667e+05,-78.2457
1.120000000e+06,-79.5198
1.493333333e+06,-67.2231
1.866666667e+06,-65.85
2.240000000e+06,-73.5159
2.613333333e+06,-64.383
2.986666667e+06,-67.737
3.360000000e+06,-60.6621
3.733333333e+06,-60.8405
4.106666667e+06,-62.5622
4.480000000e+06,-61.0431
4.853333333e+06,-67.4747
5.226666667e+06,-64.2225
5.600000000e+06,-66.5808
5.973333333e+06,-65.0263
6.346666667e+06,-70.9586
6.720000000e+06,-73.7364
7.093333333e+06,-69.3534
7.466666667e+06,-74.682
7.840000000e+06,-69.1898
8.213333333e+06,-68.9341
8.586666667e+06,-68.08
8.960000000e+06,-74.7725
9.333333333e+06,-63.0748
9.706666667e+06,-62.5382
1.008000000e+07,-70.499
1.045333333e+07,-68.1527
1.082666667e+07,-69.1405
1.120000000e+07,-70.3308
1.157333333e+07,-69.4978
1.194666667e+07,-62.9955
1.232000000e+07,-66.2548
1.269333333e+07,-70.3681
1.306666667e+07,-69.96
1.344000000e+07,-63.1189
1.381333333e+07,-65.3738
1.418666667e+07,-69.4727
1.456000000e+07,-68.4259
1.493333333e+07,-69.8189
1.530666667e+07,-72.7631
1.568000000e+07,-72.2889
1.605333333e+07,-65.7855
1.642666667e+07,-62.9324
1.680000000e+07,-65.159
1.717333333e+07,-67.2446
1.754666667e+07,-65.5603
1.792000000e+07,-55.585
1.829333333e+07,-57.2928
1.866666667e+07,-69.2096
1.904000000e+07,-62.579
1.941333333e+07,-65.2539
1.978666667e+07,-69.6058
2.016000000e+07,-66.2455
2.053333333e+07,-67.3952
2.090666667e+07,-63.7738
2.128000000e+07,-64.4791
2.165333333e+07,-62.4932
2.202666667e+07,-61.7292
2.240000000e+07,-66.775
2.277333333e+07,-65.3148
2.314666667e+07,-64.0362
2.352000000e+07,-62.7633
2.389333333e+07,-64.0072
2.426666667e+07,-65.1808
2.464000000e+07,-60.5149
2.501333333e+07,-52.3157
2.538666667e+07,-65.7928
2.576000000e+07,-71.5249
2.613333333e+07,-62.6691
2.650666667e+07,-66.3247
2.688000000e+07,-62.4011
2.725333333e+07,-59.7352
2.762666667e+07,-63.2631
2.800000000e+07,-74.7305
2.837333333e+07,-71.5953
2.874666667e+07,-71.2241
2.912000000e+07,-73.147
2.949333333e+07,-65.4526
2.986666667e+07,-49.0819
3.024000000e+07,-50.6498
3.061333333e+07,-67.5757
3.098666667e+07,-67.4449
3.136000000e+07,-66.8355
3.173333333e+07,-67.4224
3.210666667e+07,-68.7312
3.248000000e+07,-61.0019
3.285333333e+07,-60.3558
3.322666667e+07,-72.2329
3.360000000e+07,-66.963
3.397333333e+07,-65.5151
3.434666667e+07,-65.041
3.472000000e+07,-75.1414
3.509333333e+07,-59.8129
3.546666667e+07,-57.2939
3.584000000e+07,-47.2547
3.621333333e+07,-48.2515
3.658666667e+07,-68.5922
3.696000000e+07,-64.0004
3.733333333e+07,-72.6737
3.770666667e+07,-67.1125
3.808000000e+07,-58.695
3.845333333e+07,-63.3826
3.882666667e+07,-74.3729
3.920000000e+07,-68.3207
3.957333333e+07,-66.6587
3.994666667e+07,-70.1995
4.032000000e+07,-67.4343
4.069333333e+07,-59.8949
4.106666667e+07,-60.7006
4.144000000e+07,-67.2407
4.181333333e+07,-55.0581
4.218666667e+07,-54.3872
4.256000000e+07,-64.1164
4.293333333e+07,-68.1671
4.330666667e+07,-61.1307
4.368000000e+07,-61.0767
4.405333333e+07,-63.866
4.442666667e+07,-71.0682
4.480000000e+07,-64.7294
4.517333333e+07,-65.2607
4.554666667e+07,-69.6684
4.592000000e+07,-62.9833
4.629333333e+07,-57.8617
4.666666667e+07,-57.4839
4.704000000e+07,-73.0529
4.741333333e+07,-58.8358
4.778666667e+07,-37.1703
4.816000000e+07,-36.6355
4.853333333e+07,-61.097
4.890666667e+07,-59.8439
4.928000000e+07,-58.8412
4.965333333e+07,-69.8129
5.002666667e+07,-68.301
5.040000000e+07,-63.6761
5.077333333e+07,-65.8055
5.114666667e+07,-71.0498
5.152000000e+07,-60.4001
5.189333333e+07,-54.381
5.226666667e+07,-62.9327
5.264000000e+07,-68.0649
5.301333333e+07,-60.2209
5.338666667e+07,-65.0722
5.376000000e+07,-49.813
5.413333333e+07,-48.3417
5.450666667e+07,-55.8894
5.488000000e+07,-58.892
5.525333333e+07,-66.2131
5.562666667e+07,-58.6848
5.600000000e+07,-59.6281
5.637333333e+07,-66.3349
5.674666667e+07,-72.0553
5.712000000e+07,-53.199
5.749333333e+07,-53.2188
5.786666667e+07,-69.2304
5.824000000e+07,-61.1872
5.861333333e+07,-60.1438
5.898666667e+07,-62.6813
5.936000000e+07,-63.586
5.973333333e+07,-31.9544
6.010666667e+07,-29.7184
6.048000000e+07,-48.2063
6.085333333e+07,-63.7468
6.122666667e+07,-60.3745
6.160000000e+07,-60.2713
6.197333333e+07,-71.8647
6.234666667e+07,-58.0233
6.272000000e+07,-52.2254
6.309333333e+07,-59.9468
6.346666667e+07,-69.5872
6.384000000e+07,-62.0116
6.421333333e+07,-59.9947
6.458666667e+07,-64.3201
6.496000000e+07,-64.3882
6.533333333e+07,-53.8485
6.570666667e+07,-49.8036
6.608000000e+07,-45.95
6.645333333e+07,-62.1552
6.682666667e+07,-61.2007
6.720000000e+07,-65.1883
6.757333333e+07,-68.8482
6.794666667e+07,-55.017
6.832000000e+07,-55.8327
6.869333333e+07,-66.3307
6.906666667e+07,-70.2439
6.944000000e+07,-59.9969
6.981333333e+07,-60.6068
7.018666667e+07,-64.5134
7.056000000e+07,-54.9136
7.093333333e+07,-54.4656
7.130666667e+07,-60.6399
7.168000000e+07,-45.7842
7.205333333e+07,-41.213
7.242666667e+07,-57.924
7.280000000e+07,-69.8411
7.317333333e+07,-60.3696
7.354666667e+07,-55.794
7.392000000e+07,-57.3243
7.429333333e+07,-67.9177
7.466666667e+07,-65.563
7.504000000e+07,-61.0138
7.541333333e+07,-63.3071
7.578666667e+07,-62.6238
7.616000000e+07,-58.3519
7.653333333e+07,-57.3843
7.690666667e+07,-64.7722
7.728000000e+07,-63.6724
7.765333333e+07,-51.0048
7.802666667e+07,-47.4538
7.840000000e+07,-57.6328
7.877333333e+07,-57.006
7.914666667e+07,-55.3061
7.952000000e+07,-62.4648
7.989333333e+07,-68.03
8.026666667e+07,-60.8472
8.064000000e+07,-61.0133
8.101333333e+07,-63.0123
8.138666667e+07,-59.8469
8.176000000e+07,-54.2542
8.213333333e+07,-55.8022
8.250666667e+07,-72.4736
8.288000000e+07,-61.8333
8.325333333e+07,-63.043
8.362666667e+07,-51.698
8.400000000e+07,-45.014
8.437333333e+07,-54.11
8.474666667e+07,-53.0902
8.512000000e+07,-69.4813
8.549333333e+07,-60.0319
8.586666667e+07,-59.5118
8.624000000e+07,-64.1686
8.661333333e+07,-65.2566
8.698666667e+07,-57.8835
8.736000000e+07,-53.8975
8.773333333e+07,-66.7332
8.810666667e+07,-69.2236
8.848000000e+07,-62.439
8.885333333e+07,-61.988
8.922666667e+07,-69.8547
8.960000000e+07,-54.1806
8.997333333e+07,-45.195
9.034666667e+07,-52.3702
9.072000000e+07,-73.673
9.109333333e+07,-64.9939
9.146666667e+07,-61.5899
9.184000000e+07,-67.4892
9.221333333e+07,-70.0366
9.258666667e+07,-53.463
9.296000000e+07,-55.9559
9.333333333e+07,-70.8898
9.370666667e+07,-65.5907
9.408000000e+07,-66.8147
9.445333333e+07,-67.1674
9.482666667e+07,-63.3059
9.520000000e+07,-52.6947
9.557333333e+07,-52.1785
9.594666667e+07,-42.7087
9.632000000e+07,-46.6153
9.669333333e+07,-58.8202
9.706666667e+07,-58.4872
9.744000000e+07,-64.3925
9.781333333e+07,-59.1056
9.818666667e+07,-55.1659
9.856000000e+07,-61.5567
9.893333333e+07,-65.1664
9.930666667e+07,-62.1872
9.968000000e+07,-60.0943
1.000533333e+08,-65.3165
1.004266667e+08,-60.9235
1.008000000e+08,-52.4617
1.011733333e+08,-55.5094
1.015466667e+08,-62.1588
1.019200000e+08,-53.8134
1.022933333e+08,-58.7334
1.026666667e+08,-62.6202
1.030400000e+08,-62.4757
1.034133333e+08,-54.6219
1.037866667e+08,-55.9295
1.041600000e+08,-65.142
1.045333333e+08,-64.4309
1.049066667e+08,-62.3013
1.052800000e+08,-64.3062
1.056533333e+08,-62.0776
1.060266667e+08,-56.054
1.064000000e+08,-53.3864
1.067733333e+08,-55.2869
1.071466667e+08,-70.1931
1.075200000e+08,-55.8771
1.078933333e+08,-41.9576
1.082666667e+08,-43.955
1.086400000e+08,-59.4548
1.090133333e+08,-55.611
1.093866667e+08,-55.4142
1.097600000e+08,-64.38
1.101333333e+08,-61.2283
1.105066667e+08,-61.6891
1.108800000e+08,-60.93
1.112533333e+08,-66.4852
1.116266667e+08,-53.4702
1.120000000e+08,-51.6294
1.123733333e+08,-66.6738
1.127466667e+08,-59.3249
1.131200000e+08,-57.0793
1.134933333e+08,-65.8635
1.138666667e+08,-62.4978
1.142400000e+08,-59.2579
1.146133333e+08,-53.2638
1.149866667e+08,-66.0332
1.153600000e+08,-64.3787
1.157333333e+08,-58.6216
1.161066667e+08,-63.2789
1.164800000e+08,-66.5448
1.168533333e+08,-65.3896
1.172266667e+08,-50.4796
1.176000000e+08,-54.0187
1.179733333e+08,-66.7592
1.183466667e+08,-58.5392
1.187200000e+08,-59.5153
1.190933333e+08,-60.4331
1.194666667e+08,-58.2754
1.198400000e+08,-36.08
1.202133333e+08,-36.8826
1.205866667e+08,-66.5446
1.209600000e+08,-59.2061
1.213333333e+08,-60.2482
1.217066667e+08,-62.3679
1.220800000e+08,-69.2276
1.224533333e+08,-51.1352
1.228266667e+08,-49.7301
1.232000000e+08,-62.123
1.235733333e+08,-64.1002
1.239466667e+08,-60.5767
1.243200000e+08,-60.35
1.246933333e+08,-69.1042
1.250666667e+08,-57.6486
1.254400000e+08,-52.0837
1.258133333e+08,-56.2373
1.261866667e+08,-55.3066
1.265600000e+08,-58.4962
1.269333333e+08,-58.4138
1.273066667e+08,-67.4728
1.276800000e+08,-60.5624
1.280533333e+08,-50.4664
1.284266667e+08,-53.6547
1.288000000e+08,-60.6992
1.291733333e+08,-61.7059
1.295466667e+08,-57.9434
1.299200000e+08,-61.7348
1.302933333e+08,-62.892
1.306666667e+08,-52.3106
1.310400000e+08,-52.7523
1.314133333e+08,-60.5144
1.317866667e+08,-64.45
1.321600000e+08,-57.4781
1.325333333e+08,-58.6814
1.329066667e+08,-63.3643
1.332800000e+08,-52.2052
1.336533333e+08,-51.1587
1.340266667e+08,-52.1422
1.344000000e+08,-65.914
1.347733333e+08,-55.3477
1.351466667e+08,-55.5284
1.355200000e+08,-63.148
1.358933333e+08,-59.4989
1.362666667e+08,-52.8716
1.366400000e+08,-52.4401
1.370133333e+08,-65.4693
1.373866667e+08,-55.574
1.377600000e+08,-54.4604
1.381333333e+08,-57.838
1.385066667e+08,-59.8457
1.388800000e+08,-52.3722
1.392533333e+08,-49.5531
1.396266667e+08,-57.6715
1.400000000e+08,-59.7702
1.403733333e+08,-54.6367
1.407466667e+08,-61.3586
1.411200000e+08,-65.0681
1.414933333e+08,-57.5368
1.418666667e+08,-51.8392
1.422400000e+08,-56.9072
1.426133333e+08,-65.8969
1.429866667e+08,-55.7725
1.433600000e+08,-57.0032
1.437333333e+08,-45.565
1.441066667e+08,-43.1017
1.444800000e+08,-48.8167
1.448533333e+08,-50.5411
1.452266667e+08,-63.522
1.456000000e+08,-55.9268
1.459733333e+08,-57.217
1.463466667e+08,-57.8278
1.467200000e+08,-65.1595
1.470933333e+08,-53.0066
1.474666667e+08,-52.339
1.478400000e+08,-64.9001
1.482133333e+08,-59.3404
1.485866667e+08,-57.8271
1.489600000e+08,-56.2835
1.493333333e+08,-66.2172
1.497066667e+08,-54.1795
1.500800000e+08,-51.4699
1.504533333e+08,-58.5181
1.508266667e+08,-67.3184
1.512000000e+08,-58.8464
1.515733333e+08,-56.4428
1.519466667e+08,-62.2902
1.523200000e+08,-61.7851
1.526933333e+08,-52.7718
1.530666667e+08,-59.3099
1.534400000e+08,-68.6463
1.538133333e+08,-58.1284
1.541866667e+08,-57.4121
1.545600000e+08,-62.2951
1.549333333e+08,-59.5667
1.553066667e+08,-48.839
1.556800000e+08,-43.7935
1.560533333e+08,-40.4778
1.564266667e+08,-54.0116
1.568000000e+08,-56.0047
1.571733333e+08,-57.3339
1.575466667e+08,-62.7252
1.579200000e+08,-52.5838
1.582933333e+08,-52.1238
1.586666667e+08,-62.2375
1.590400000e+08,-63.5631
1.594133333e+08,-54.63
1.597866667e+08,-54.8979
1.601600000e+08,-59.1916
1.605333333e+08,-52.6505
1.609066667e+08,-50.3024
1.612800000e+08,-53.1915
1.616533333e+08,-66.2425
1.620266667e+08,-56.2368
1.624000000e+08,-55.8226
1.627733333e+08,-61.502
1.631466667e+08,-59.9729
1.635200000e+08,-52.9593
1.638933333e+08,-55.366
1.642666667e+08,-68.4705
1.646400000e+08,-61.0457
1.650133333e+08,-57.2347
1.653866667e+08,-57.7695
1.657600000e+08,-59.7552
1.661333333e+08,-51.9288
1.665066667e+08,-50.7879
1.668800000e+08,-58.9983
1.672533333e+08,-61.5883
1.676266667e+08,-49.6661
1.680000000e+08,-45.6103
1.683733333e+08,-60.0291
1.687466667e+08,-57.6163
1.691200000e+08,-55.3481
1.694933333e+08,-60.0067
1.698666667e+08,-67.2117
1.702400000e+08,-57.4088
1.706133333e+08,-57.8426
1.709866667e+08,-56.1573
1.713600000e+08,-57.4246
1.717333333e+08,-48.3077
1.721066667e+08,-48.9405
1.724800000e+08,-63.2382
1.728533333e+08,-55.3194
1.732266667e+08,-56.0585
1.736000000e+08,-58.8835
1.739733333e+08,-57.1906
1.743466667e+08,-53.574
1.747200000e+08,-52.3414
1.750933333e+08,-64.711
1.754666667e+08,-58.651
1.758400000e+08,-57.4089
1.762133333e+08,-59.9647
1.765866667e+08,-62.9692
1.769600000e+08,-53.3569
1.773333333e+08,-47.2243
1.777066667e+08,-57.6136
1.780800000e+08,-62.6372
1.784533333e+08,-56.5798
1.788266667e+08,-57.6841
1.792000000e+08,-61.3877
1.795733333e+08,-53.286
1.799466667e+08,-41.5817
1.803200000e+08,-46.1837
1.806933333e+08,-66.7239
1.810666667e+08,-58.768
1.814400000e+08,-58.5799
1.818133333e+08,-60.1772
1.821866667e+08,-66.5061
1.825600000e+08,-47.3986
1.829333333e+08,-48.599
1.833066667e+08,-61.8603
1.836800000e+08,-59.0287
1.840533333e+08,-58.8782
1.844266667e+08,-59.2026
1.848000000e+08,-65.9849
1.851733333e+08,-54.3585
1.855466667e+08,-52.6377
1.859200000e+08,-60.3593
1.862933333e+08,-59.384
1.866666667e+08,-58.3491
1.870400000e+08,-59.8843
1.874133333e+08,-65.1974
1.877866667e+08,-52.9146
1.881600000e+08,-47.7574
1.885333333e+08,-53.5426
1.889066667e+08,-60.4784
1.892800000e+08,-59.0369
1.896533333e+08,-57.4336
1.900266667e+08,-61.5155
1.904000000e+08,-62.4977
1.907733333e+08,-53.6193
1.911466667e+08,-55.6317
1.915200000e+08,-60.8545
1.918933333e+08,-49.4788
1.922666667e+08,-51.1352
1.926400000e+08,-58.4845
1.930133333e+08,-57.8906
1.933866667e+08,-49.4034
1.937600000e+08,-50.3281
1.941333333e+08,-54.3081
1.945066667e+08,-60.971
1.948800000e+08,-54.7526
1.952533333e+08,-56.3475
1.956266667e+08,-60.3199
1.960000000e+08,-56.5843
1.963733333e+08,-53.4692
1.967466667e+08,-55.5843
1.971200000e+08,-63.0711
1.974933333e+08,-54.7826
1.978666667e+08,-55.1667
1.982400000e+08,-55.8516
1.986133333e+08,-55.9084
1.989866667e+08,-47.925
1.993600000e+08,-47.4756
1.997333333e+08,-62.5989
2.001066667e+08,-54.3304
2.004800000e+08,-53.9032
2.008533333e+08,-60.7347
2.012266667e+08,-61.0607
2.016000000e+08,-55.349
2.019733333e+08,-52.9229
2.023466667e+08,-61.6494
2.027200000e+08,-61.5589
2.030933333e+08,-56.7367
2.034666667e+08,-59.0124
2.038400000e+08,-43.114
2.042133333e+08,-43.6897
2.045866667e+08,-46.9549
2.049600000e+08,-53.5307
2.053333333e+08,-62.4351
2.057066667e+08,-54.3954
2.060800000e+08,-59.5819
2.064533333e+08,-61.672
2.068266667e+08,-63.2605
2.072000000e+08,-51.9583
2.075733333e+08,-54.1268
2.079466667e+08,-65.6195
2.083200000e+08,-54.4106
2.086933333e+08,-56.5416
2.090666667e+08,-61.7221
2.094400000e+08,-61.8589
2.098133333e+08,-45.6614
2.101866667e+08,-45.6478
2.105600000e+08,-60.4212
2.109333333e+08,-54.7188
2.113066667e+08,-54.4946
2.116800000e+08,-56.9688
2.120533333e+08,-64.335
2.124266667e+08,-55.8082
2.128000000e+08,-53.6585
2.131733333e+08,-61.8843
2.135466667e+08,-59.2155
2.139200000e+08,-55.4967
2.142933333e+08,-55.0221
2.146666667e+08,-60.5427
2.150400000e+08,-53.4542
2.154133333e+08,-47.0126
2.157866667e+08,-48.2947
2.161600000e+08,-47.1258
2.165333333e+08,-56.6432
2.169066667e+08,-54.2488
2.172800000e+08,-58.2831
2.176533333e+08,-60.4015
2.180266667e+08,-53.5027
2.184000000e+08,-54.3
2.187733333e+08,-59.2741
2.191466667e+08,-56.0568
2.195200000e+08,-54.7583
2.198933333e+08,-57.0755
2.202666667e+08,-56.0469
2.206400000e+08,-49.1141
2.210133333e+08,-49.0482
2.213866667e+08,-51.9937
2.217600000e+08,-58.3836
2.221333333e+08,-53.6038
2.225066667e+08,-54.5059
2.228800000e+08,-63.3059
2.232533333e+08,-58.8924
2.236266667e+08,-53.7942
2.240000000e+08,-54.5041
2.243733333e+08,-63.8321
2.247466667e+08,-54.5825
2.251200000e+08,-54.6675
2.254933333e+08,-55.9695
2.258666667e+08,-56.0835
2.262400000e+08,-49.4629
2.266133333e+08,-48.3174
2.269866667e+08,-59.7387
2.273600000e+08,-55.0057
2.277333333e+08,-51.8862
2.281066667e+08,-46.9701
2.284800000e+08,-58.5693
2.288533333e+08,-56.256
2.292266667e+08,-53.3452
2.296000000e+08,-60.3025
2.299733333e+08,-58.3299
2.303466667e+08,-54.3092
2.307200000e+08,-55.0158
2.310933333e+08,-57.188
2.314666667e+08,-54.3839
2.318400000e+08,-46.7874
2.322133333e+08,-50.672
2.325866667e+08,-69.6449
2.329600000e+08,-54.8108
2.333333333e+08,-56.9397
2.337066667e+08,-57.4021
2.340800000e+08,-61.2725
2.344533333e+08,-52.4809
2.348266667e+08,-53.3347
2.352000000e+08,-63.6834
2.355733333e+08,-54.9717
2.359466667e+08,-55.6288
2.363200000e+08,-55.7782
2.366933333e+08,-66.3327
2.370666667e+08,-47.3211
2.374400000e+08,-45.8723
2.378133333e+08,-62.1715
2.381866667e+08,-57.2594
2.385600000e+08,-54.9163
2.389333333e+08,-56.7599
2.393066667e+08,-71.8005
2.396800000e+08,-52.805
2.400533333e+08,-49.6351
2.404266667e+08,-49.6702
2.408000000e+08,-60.4165
2.411733333e+08,-55.3463
2.415466667e+08,-56.0007
2.419200000e+08,-60.4949
2.422933333e+08,-58.3516
2.426666667e+08,-46.2902
2.430400000e+08,-50.9444
2.434133333e+08,-63.3028
2.437866667e+08,-57.4522
2.441600000e+08,-56.4701
2.445333333e+08,-59.8983
2.449066667e+08,-65.6205
2.452800000e+08,-53.5414
2.456533333e+08,-54.4931
2.460266667e+08,-60.0117
2.464000000e+08,-59.1243
2.467733333e+08,-57.6542
2.471466667e+08,-58.5737
2.475200000e+08,-60.0465
2.478933333e+08,-49.1069
2.482666667e+08,-48.2642
2.486400000e+08,-53.8689
2.490133333e+08,-60.5103
2.493866667e+08,-54.9867
2.497600000e+08,-55.0241
2.501333333e+08,-61.8461
2.505066667e+08,-61.7251
2.508800000e+08,-56.1023
2.512533333e+08,-57.3159
2.516266667e+08,-51.7424
2.520000000e+08,-45.9392
2.523733333e+08,-56.819
2.527466667e+08,-59.7966
2.531200000e+08,-58.0657
2.534933333e+08,-49.996
2.538666667e+08,-50.1069
2.542400000e+08,-57.9348
2.546133333e+08,-57.7753
2.549866667e+08,-55.3914
2.553600000e+08,-62.3039
2.557333333e+08,-61.8638
2.561066667e+08,-56.0532
2.564800000e+08,-53.9721
2.568533333e+08,-59.8152
2.572266667e+08,-60.9168
2.576000000e+08,-55.2885
2.579733333e+08,-57.4278
2.583466667e+08,-58.7032
2.587200000e+08,-54.4176
2.590933333e+08,-48.2062
2.594666667e+08,-50.3963
2.598400000e+08,-68.1484
2.602133333e+08,-53.9621
2.605866667e+08,-55.065
2.609600000e+08,-60.0464
2.613333333e+08,-65.651
2.617066667e+08,-53.7245
2.620800000e+08,-53.6349
2.624533333e+08,-69.5032
2.628266667e+08,-56.2453
2.632000000e+08,-55.8871
2.635733333e+08,-55.2257
2.639466667e+08,-47.7124
2.643200000e+08,-48.8069
2.646933333e+08,-47.2751
2.650666667e+08,-63.4662
2.654400000e+08,-56.8175
2.658133333e+08,-54.3292
2.661866667e+08,-57.5158
2.665600000e+08,-67.2534
2.669333333e+08,-59.3785
2.673066667e+08,-52.9411
2.676800000e+08,-59.1216
2.680533333e+08,-63.2558
2.684266667e+08,-56.0102
2.688000000e+08,-54.882
2.691733333e+08,-58.5793
2.695466667e+08,-62.0489
2.699200000e+08,-46.3769
2.702933333e+08,-49.3723
2.706666667e+08,-62.0441
2.710400000e+08,-57.0451
2.714133333e+08,-55.7244
2.717866667e+08,-56.3306
2.721600000e+08,-66.5633
2.725333333e+08,-53.4433
2.729066667e+08,-53.8231
2.732800000e+08,-65.1861
2.736533333e+08,-57.2311
2.740266667e+08,-56.8778
2.744000000e+08,-57.1141
2.747733333e+08,-64.2009
2.751466667e+08,-50.9916
2.755200000e+08,-48.7326
2.758933333e+08,-44.3352
2.762666667e+08,-47.1533
2.766400000e+08,-55.0398
2.770133333e+08,-54.2241
2.773866667e+08,-61.5412
2.777600000e+08,-60.1624
2.781333333e+08,-55.1057
2.785066667e+08,-57.2811
2.788800000e+08,-68.2983
2.792533333e+08,-57.3739
2.796266667e+08,-55.2662
2.800000000e+08,-58.8592

