Model,MDO3104
Firmware Version,1.30

Waveform Type,RF_FD
Point Format,Y
Horizontal Units,Hz
Horizontal Scale,2.8e+07
,
Sample Interval,373333
Record Length,751
Gating,0.133155792277% to 100.0%
Probe Attenuation,1
Vertical Units,dBm
Vertical Offset,0
Vertical Scale,10
Vertical Position,0
Center Frequency,1.4e+08
Span,2.8e+08
Reference Level,-15
Label,
FREQUENCY,FD NORM
0.000000000e+00,-66.5993
3.733333333e+05,-75.5363
7.466666667e+05,-80.3973
1.120000000e+06,-81.6483
1.493333333e+06,-75.3792
1.866666667e+06,-73.2358
2.240000000e+06,-70.8529
2.613333333e+06,-64.37
2.986666667e+06,-68.3699
3.360000000e+06,-60.391
3.733333333e+06,-61.4962
4.106666667e+06,-71.0807
4.480000000e+06,-69.6231
4.853333333e+06,-72.0163
5.226666667e+06,-65.7307
5.600000000e+06,-67.1538
5.973333333e+06,-59.0183
6.346666667e+06,-61.9385
6.720000000e+06,-70.1331
7.093333333e+06,-72.2525
7.466666667e+06,-72.3659
7.840000000e+06,-67.0023
8.213333333e+06,-65.8818
8.586666667e+06,-67.6478
8.960000000e+06,-74.2396
9.333333333e+06,-72.0274
9.706666667e+06,-71.0764
1.008000000e+07,-74.379
1.045333333e+07,-68.7837
1.082666667e+07,-73.3177
1.120000000e+07,-65.0919
1.157333333e+07,-69.0578
1.194666667e+07,-57.9221
1.232000000e+07,-61.4966
1.269333333e+07,-79.0998
1.306666667e+07,-67.6719
1.344000000e+07,-67.6521
1.381333333e+07,-68.9338
1.418666667e+07,-73.588
1.456000000e+07,-76.1087
1.493333333e+07,-72.217
1.530666667e+07,-72.1366
1.568000000e+07,-70.8611
1.605333333e+07,-67.1398
1.642666667e+07,-67.4202
1.680000000e+07,-68.7998
1.717333333e+07,-67.6843
1.754666667e+07,-67.4043
1.792000000e+07,-54.5203
1.829333333e+07,-60.742
1.866666667e+07,-66.9577
1.904000000e+07,-63.0321
1.941333333e+07,-65.3252
1.978666667e+07,-75.0884
2.016000000e+07,-73.6538
2.053333333e+07,-73.9164
2.090666667e+07,-81.015
2.128000000e+07,-70.1609
2.165333333e+07,-62.5089
2.202666667e+07,-61.6993
2.240000000e+07,-64.9147
2.277333333e+07,-64.0726
2.314666667e+07,-69.6114
2.352000000e+07,-63.6853
2.389333333e+07,-64.5415
2.426666667e+07,-65.4673
2.464000000e+07,-65.126
2.501333333e+07,-53.4617
2.538666667e+07,-61.3218
2.576000000e+07,-68.8588
2.613333333e+07,-69.5442
2.650666667e+07,-73.1017
2.688000000e+07,-70.4263
2.725333333e+07,-61.2538
2.762666667e+07,-64.5882
2.800000000e+07,-68.9039
2.837333333e+07,-68.9363
2.874666667e+07,-66.6999
2.912000000e+07,-76.1259
2.949333333e+07,-78.4344
2.986666667e+07,-56.0187
3.024000000e+07,-57.5706
3.061333333e+07,-71.084
3.098666667e+07,-70.937
3.136000000e+07,-76.1112
3.173333333e+07,-75.8551
3.210666667e+07,-79.9288
3.248000000e+07,-63.6621
3.285333333e+07,-63.0956
3.322666667e+07,-73.931
3.360000000e+07,-74.9254
3.397333333e+07,-80.929
3.434666667e+07,-72.2329
3.472000000e+07,-80.3448
3.509333333e+07,-62.7891
3.546666667e+07,-58.2226
3.584000000e+07,-46.6806
3.621333333e+07,-47.5093
3.658666667e+07,-74.138
3.696000000e+07,-74.6715
3.733333333e+07,-74.1049
3.770666667e+07,-67.8968
3.808000000e+07,-60.0047
3.845333333e+07,-64.5016
3.882666667e+07,-78.0929
3.920000000e+07,-75.8004
3.957333333e+07,-73.0374
3.994666667e+07,-74.6147
4.032000000e+07,-73.6236
4.069333333e+07,-57.7238
4.106666667e+07,-58.365
4.144000000e+07,-66.7346
4.181333333e+07,-53.8079
4.218666667e+07,-53.8899
4.256000000e+07,-76.5683
4.293333333e+07,-70.5492
4.330666667e+07,-62.8482
4.368000000e+07,-61.905
4.405333333e+07,-65.3728
4.442666667e+07,-72.3407
4.480000000e+07,-75.3889
4.517333333e+07,-74.8206
4.554666667e+07,-71.4724
4.592000000e+07,-65.6255
4.629333333e+07,-57.4407
4.666666667e+07,-57.9423
4.704000000e+07,-72.93
4.741333333e+07,-65.4403
4.778666667e+07,-36.6545
4.816000000e+07,-36.1136
4.853333333e+07,-67.4007
4.890666667e+07,-59.6865
4.928000000e+07,-58.9071
4.965333333e+07,-72.8443
5.002666667e+07,-72.8478
5.040000000e+07,-72.2092
5.077333333e+07,-74.1833
5.114666667e+07,-78.8354
5.152000000e+07,-60.707
5.189333333e+07,-55.6571
5.226666667e+07,-68.5561
5.264000000e+07,-75.5761
5.301333333e+07,-72.6834
5.338666667e+07,-70.3309
5.376000000e+07,-49.4684
5.413333333e+07,-48.1607
5.450666667e+07,-56.1891
5.488000000e+07,-59.9758
5.525333333e+07,-79.4293
5.562666667e+07,-75.3206
5.600000000e+07,-68.6957
5.637333333e+07,-67.1353
5.674666667e+07,-68.8208
5.712000000e+07,-52.2725
5.749333333e+07,-52.6481
5.786666667e+07,-75.867
5.824000000e+07,-79.2278
5.861333333e+07,-74.1014
5.898666667e+07,-73.7678
5.936000000e+07,-79.7982
5.973333333e+07,-37.6566
6.010666667e+07,-35.4606
6.048000000e+07,-55.1126
6.085333333e+07,-75.0216
6.122666667e+07,-72.4158
6.160000000e+07,-71.801
6.197333333e+07,-74.0099
6.234666667e+07,-60.5441
6.272000000e+07,-53.1624
6.309333333e+07,-62.5118
6.346666667e+07,-68.1517
6.384000000e+07,-69.0627
6.421333333e+07,-68.3022
6.458666667e+07,-67.4233
6.496000000e+07,-68.5284
6.533333333e+07,-55.1449
6.570666667e+07,-48.7193
6.608000000e+07,-46.0914
6.645333333e+07,-62.9034
6.682666667e+07,-69.2391
6.720000000e+07,-69.1504
6.757333333e+07,-68.2296
6.794666667e+07,-56.0514
6.832000000e+07,-56.1407
6.869333333e+07,-70.3613
6.906666667e+07,-73.5256
6.944000000e+07,-69.9379
6.981333333e+07,-70.3424
7.018666667e+07,-65.5972
7.056000000e+07,-58.7965
7.093333333e+07,-56.0015
7.130666667e+07,-62.0865
7.168000000e+07,-45.7068
7.205333333e+07,-41.4622
7.242666667e+07,-58.0284
7.280000000e+07,-68.6527
7.317333333e+07,-62.8634
7.354666667e+07,-56.1615
7.392000000e+07,-58.478
7.429333333e+07,-63.7253
7.466666667e+07,-74.1906
7.504000000e+07,-74.7743
7.541333333e+07,-68.5847
7.578666667e+07,-67.6401
7.616000000e+07,-57.8576
7.653333333e+07,-57.8275
7.690666667e+07,-67.8189
7.728000000e+07,-69.8572
7.765333333e+07,-54.3744
7.802666667e+07,-48.6104
7.840000000e+07,-61.988
7.877333333e+07,-58.9271
7.914666667e+07,-55.7944
7.952000000e+07,-61.7442
7.989333333e+07,-67.9298
8.026666667e+07,-68.9932
8.064000000e+07,-67.4889
8.101333333e+07,-67.0066
8.138666667e+07,-62.6656
8.176000000e+07,-55.3005
8.213333333e+07,-56.7795
8.250666667e+07,-67.392
8.288000000e+07,-67.6827
8.325333333e+07,-70.6253
8.362666667e+07,-49.1058
8.400000000e+07,-41.7502
8.437333333e+07,-51.7853
8.474666667e+07,-52.3263
8.512000000e+07,-68.3356
8.549333333e+07,-74.1216
8.586666667e+07,-71.59
8.624000000e+07,-71.8703
8.661333333e+07,-71.5275
8.698666667e+07,-57.1408
8.736000000e+07,-54.1927
8.773333333e+07,-68.8857
8.810666667e+07,-71.2015
8.848000000e+07,-65.1484
8.885333333e+07,-68.5458
8.922666667e+07,-80.9769
8.960000000e+07,-64.7629
8.997333333e+07,-53.1462
9.034666667e+07,-60.553
9.072000000e+07,-72.572
9.109333333e+07,-72.1194
9.146666667e+07,-67.8368
9.184000000e+07,-68.3439
9.221333333e+07,-71.7166
9.258666667e+07,-54.1268
9.296000000e+07,-55.6225
9.333333333e+07,-74.7029
9.370666667e+07,-72.3345
9.408000000e+07,-81.0176
9.445333333e+07,-76.0209
9.482666667e+07,-67.0154
9.520000000e+07,-54.096
9.557333333e+07,-53.3079
9.594666667e+07,-42.5222
9.632000000e+07,-49.5986
9.669333333e+07,-75.7824
9.706666667e+07,-70.5278
9.744000000e+07,-66.2431
9.781333333e+07,-61.5814
9.818666667e+07,-55.6241
9.856000000e+07,-60.3667
9.893333333e+07,-70.5146
9.930666667e+07,-71.0049
9.968000000e+07,-73.3658
1.000533333e+08,-69.8588
1.004266667e+08,-64.8728
1.008000000e+08,-53.3872
1.011733333e+08,-55.1771
1.015466667e+08,-66.6695
1.019200000e+08,-55.3485
1.022933333e+08,-63.6088
1.026666667e+08,-65.6519
1.030400000e+08,-65.194
1.034133333e+08,-55.8845
1.037866667e+08,-56.8959
1.041600000e+08,-68.0866
1.045333333e+08,-67.2234
1.049066667e+08,-65.0205
1.052800000e+08,-67.7884
1.056533333e+08,-68.8257
1.060266667e+08,-55.3029
1.064000000e+08,-52.8153
1.067733333e+08,-58.2048
1.071466667e+08,-64.9216
1.075200000e+08,-64.7413
1.078933333e+08,-46.4316
1.082666667e+08,-48.6307
1.086400000e+08,-62.395
1.090133333e+08,-56.4268
1.093866667e+08,-56.9176
1.097600000e+08,-69.9129
1.101333333e+08,-74.0133
1.105066667e+08,-70.991
1.108800000e+08,-73.9408
1.112533333e+08,-64.5565
1.116266667e+08,-51.9421
1.120000000e+08,-50.8896
1.123733333e+08,-64.8947
1.127466667e+08,-65.3097
1.131200000e+08,-65.5474
1.134933333e+08,-66.0688
1.138666667e+08,-59.8419
1.142400000e+08,-56.9654
1.146133333e+08,-52.6118
1.149866667e+08,-63.6666
1.153600000e+08,-67.9102
1.157333333e+08,-73.4772
1.161066667e+08,-71.5392
1.164800000e+08,-70.8524
1.168533333e+08,-62.8393
1.172266667e+08,-50.3145
1.176000000e+08,-54.6994
1.179733333e+08,-69.0278
1.183466667e+08,-68.1264
1.187200000e+08,-70.9515
1.190933333e+08,-71.1495
1.194666667e+08,-58.9673
1.198400000e+08,-34.9981
1.202133333e+08,-35.8435
1.205866667e+08,-64.8847
1.209600000e+08,-66.0135
1.213333333e+08,-65.5848
1.217066667e+08,-72.2148
1.220800000e+08,-71.7971
1.224533333e+08,-51.1444
1.228266667e+08,-49.2736
1.232000000e+08,-67.0791
1.235733333e+08,-67.9139
1.239466667e+08,-69.7274
1.243200000e+08,-70.9607
1.246933333e+08,-72.7126
1.250666667e+08,-57.6129
1.254400000e+08,-51.0052
1.258133333e+08,-52.8544
1.261866667e+08,-54.3724
1.265600000e+08,-69.8668
1.269333333e+08,-71.0672
1.273066667e+08,-63.4714
1.276800000e+08,-69.7199
1.280533333e+08,-51.1478
1.284266667e+08,-53.661
1.288000000e+08,-64.2231
1.291733333e+08,-68.1153
1.295466667e+08,-66.0439
1.299200000e+08,-69.2599
1.302933333e+08,-65.1997
1.306666667e+08,-52.3814
1.310400000e+08,-52.9043
1.314133333e+08,-60.7967
1.317866667e+08,-44.9478
1.321600000e+08,-44.394
1.325333333e+08,-66.0264
1.329066667e+08,-69.1194
1.332800000e+08,-53.2249
1.336533333e+08,-51.2685
1.340266667e+08,-54.2153
1.344000000e+08,-65.7969
1.347733333e+08,-67.1149
1.351466667e+08,-71.7079
1.355200000e+08,-63.8282
1.358933333e+08,-61.2732
1.362666667e+08,-52.8605
1.366400000e+08,-52.8109
1.370133333e+08,-68.1502
1.373866667e+08,-65.5641
1.377600000e+08,-61.668
1.381333333e+08,-62.7135
1.385066667e+08,-66.9199
1.388800000e+08,-50.9577
1.392533333e+08,-49.607
1.396266667e+08,-63.5785
1.400000000e+08,-69.6739
1.403733333e+08,-68.6758
1.407466667e+08,-68.7121
1.411200000e+08,-67.2876
1.414933333e+08,-57.2408
1.418666667e+08,-52.5989
1.422400000e+08,-60.338
1.426133333e+08,-68.6134
1.429866667e+08,-65.6611
1.433600000e+08,-68.4322
1.437333333e+08,-46.3002
1.441066667e+08,-44.7125
1.444800000e+08,-49.0116
1.448533333e+08,-51.3857
1.452266667e+08,-73.0104
1.456000000e+08,-71.6727
1.459733333e+08,-73.3736
1.463466667e+08,-66.7986
1.467200000e+08,-78.5118
1.470933333e+08,-53.5296
1.474666667e+08,-53.11
1.478400000e+08,-68.2234
1.482133333e+08,-67.0303
1.485866667e+08,-74.5876
1.489600000e+08,-70.5492
1.493333333e+08,-72.3741
1.497066667e+08,-54.652
1.500800000e+08,-51.2838
1.504533333e+08,-64.1891
1.508266667e+08,-73.619
1.512000000e+08,-68.2593
1.515733333e+08,-71.961
1.519466667e+08,-72.3829
1.523200000e+08,-62.0236
1.526933333e+08,-52.3508
1.530666667e+08,-58.5429
1.534400000e+08,-64.847
1.538133333e+08,-69.9574
1.541866667e+08,-70.6615
1.545600000e+08,-69.7125
1.549333333e+08,-65.205
1.553066667e+08,-48.5503
1.556800000e+08,-49.9846
1.560533333e+08,-50.1349
1.564266667e+08,-64.5704
1.568000000e+08,-69.0187
1.571733333e+08,-67.6323
1.575466667e+08,-68.1389
1.579200000e+08,-52.2545
1.582933333e+08,-52.1259
1.586666667e+08,-64.5175
1.590400000e+08,-67.5838
1.594133333e+08,-67.3375
1.597866667e+08,-65.6978
1.601600000e+08,-66.7871
1.605333333e+08,-52.7248
1.609066667e+08,-49.5137
1.612800000e+08,-54.4182
1.616533333e+08,-60.7539
1.620266667e+08,-62.8816
1.624000000e+08,-64.1629
1.627733333e+08,-68.1699
1.631466667e+08,-62.4198
1.635200000e+08,-53.3868
1.638933333e+08,-54.2966
1.642666667e+08,-70.2616
1.646400000e+08,-66.9857
1.650133333e+08,-65.2661
1.653866667e+08,-65.3653
1.657600000e+08,-63.6643
1.661333333e+08,-50.9899
1.665066667e+08,-50.9222
1.668800000e+08,-62.1984
1.672533333e+08,-65.2913
1.676266667e+08,-52.3508
1.680000000e+08,-46.8094
1.683733333e+08,-63.3766
1.687466667e+08,-55.6197
1.691200000e+08,-52.0226
1.694933333e+08,-56.7257
1.698666667e+08,-71.2593
1.702400000e+08,-67.7723
1.706133333e+08,-68.2937
1.709866667e+08,-62.6369
1.713600000e+08,-56.8275
1.717333333e+08,-47.1851
1.721066667e+08,-48.1768
1.724800000e+08,-64.968
1.728533333e+08,-66.6747
1.732266667e+08,-65.1767
1.736000000e+08,-66.8467
1.739733333e+08,-65.3157
1.743466667e+08,-53.875
1.747200000e+08,-52.6272
1.750933333e+08,-70.0244
1.754666667e+08,-72.7561
1.758400000e+08,-68.014
1.762133333e+08,-66.2167
1.765866667e+08,-68.3602
1.769600000e+08,-51.7964
1.773333333e+08,-47.0668
1.777066667e+08,-59.2577
1.780800000e+08,-68.4375
1.784533333e+08,-71.6584
1.788266667e+08,-71.0238
1.792000000e+08,-72.3159
1.795733333e+08,-56.8714
1.799466667e+08,-46.2544
1.803200000e+08,-52.4645
1.806933333e+08,-69.8254
1.810666667e+08,-68.0632
1.814400000e+08,-73.4545
1.818133333e+08,-76.0378
1.821866667e+08,-69.5455
1.825600000e+08,-47.4423
1.829333333e+08,-48.3532
1.833066667e+08,-67.8779
1.836800000e+08,-73.7431
1.840533333e+08,-67.0387
1.844266667e+08,-78.9434
1.848000000e+08,-66.4237
1.851733333e+08,-53.9009
1.855466667e+08,-52.5508
1.859200000e+08,-63.185
1.862933333e+08,-69.3861
1.866666667e+08,-73.0498
1.870400000e+08,-71.8995
1.874133333e+08,-65.9144
1.877866667e+08,-53.069
1.881600000e+08,-47.5914
1.885333333e+08,-53.6607
1.889066667e+08,-62.8523
1.892800000e+08,-62.5571
1.896533333e+08,-70.1337
1.900266667e+08,-66.0192
1.904000000e+08,-64.3201
1.907733333e+08,-51.3828
1.911466667e+08,-53.0992
1.915200000e+08,-51.7924
1.918933333e+08,-45.1039
1.922666667e+08,-49.4439
1.926400000e+08,-64.6449
1.930133333e+08,-64.4181
1.933866667e+08,-49.3424
1.937600000e+08,-49.3964
1.941333333e+08,-59.8834
1.945066667e+08,-63.4076
1.948800000e+08,-70.2693
1.952533333e+08,-67.9135
1.956266667e+08,-70.1247
1.960000000e+08,-57.3605
1.963733333e+08,-54.8494
1.967466667e+08,-57.865
1.971200000e+08,-67.9453
1.974933333e+08,-69.9194
1.978666667e+08,-66.0455
1.982400000e+08,-63.4138
1.986133333e+08,-60.6588
1.989866667e+08,-48.9359
1.993600000e+08,-48.7309
1.997333333e+08,-64.0999
2.001066667e+08,-65.1745
2.004800000e+08,-69.9969
2.008533333e+08,-69.3721
2.012266667e+08,-65.4032
2.016000000e+08,-57.9856
2.019733333e+08,-54.9545
2.023466667e+08,-68.6148
2.027200000e+08,-66.4704
2.030933333e+08,-69.5939
2.034666667e+08,-71.7598
2.038400000e+08,-44.3424
2.042133333e+08,-45.773
2.045866667e+08,-46.9919
2.049600000e+08,-58.5712
2.053333333e+08,-74.0617
2.057066667e+08,-67.3219
2.060800000e+08,-67.3283
2.064533333e+08,-66.4877
2.068266667e+08,-61.933
2.072000000e+08,-53.9617
2.075733333e+08,-57.3911
2.079466667e+08,-67.7455
2.083200000e+08,-65.2644
2.086933333e+08,-77.2188
2.090666667e+08,-74.3285
2.094400000e+08,-70.0041
2.098133333e+08,-45.1955
2.101866667e+08,-45.1409
2.105600000e+08,-66.4224
2.109333333e+08,-64.3873
2.113066667e+08,-62.6099
2.116800000e+08,-63.4048
2.120533333e+08,-63.8595
2.124266667e+08,-56.5525
2.128000000e+08,-53.4798
2.131733333e+08,-64.6244
2.135466667e+08,-75.4514
2.139200000e+08,-68.8741
2.142933333e+08,-66.2339
2.146666667e+08,-63.8438
2.150400000e+08,-56.6113
2.154133333e+08,-46.4715
2.157866667e+08,-49.5006
2.161600000e+08,-48.4598
2.165333333e+08,-67.3258
2.169066667e+08,-64.2533
2.172800000e+08,-64.4737
2.176533333e+08,-62.811
2.180266667e+08,-52.3708
2.184000000e+08,-53.5314
2.187733333e+08,-64.4087
2.191466667e+08,-72.898
2.195200000e+08,-69.0952
2.198933333e+08,-65.2787
2.202666667e+08,-60.3226
2.206400000e+08,-47.6291
2.210133333e+08,-47.4431
2.213866667e+08,-56.4156
2.217600000e+08,-64.1501
2.221333333e+08,-62.973
2.225066667e+08,-68.6799
2.228800000e+08,-66.0052
2.232533333e+08,-57.6034
2.236266667e+08,-54.5541
2.240000000e+08,-54.976
2.243733333e+08,-69.0427
2.247466667e+08,-68.2141
2.251200000e+08,-66.8828
2.254933333e+08,-62.5439
2.258666667e+08,-58.66
2.262400000e+08,-48.0376
2.266133333e+08,-48.4187
2.269866667e+08,-60.9085
2.273600000e+08,-67.4122
2.277333333e+08,-59.0987
2.281066667e+08,-54.3625
2.284800000e+08,-62.8899
2.288533333e+08,-55.0852
2.292266667e+08,-53.5806
2.296000000e+08,-66.2989
2.299733333e+08,-66.0095
2.303466667e+08,-65.5562
2.307200000e+08,-71.7784
2.310933333e+08,-63.0113
2.314666667e+08,-52.3152
2.318400000e+08,-46.3461
2.322133333e+08,-52.373
2.325866667e+08,-67.9374
2.329600000e+08,-70.1485
2.333333333e+08,-69.8861
2.337066667e+08,-66.1536
2.340800000e+08,-64.9542
2.344533333e+08,-54.0162
2.348266667e+08,-55.5671
2.352000000e+08,-74.6815
2.355733333e+08,-74.7514
2.359466667e+08,-75.738
2.363200000e+08,-69.958
2.366933333e+08,-68.3721
2.370666667e+08,-47.6135
2.374400000e+08,-46.5273
2.378133333e+08,-76.6968
2.381866667e+08,-73.6885
2.385600000e+08,-75.1565
2.389333333e+08,-75.0112
2.393066667e+08,-58.2493
2.396800000e+08,-48.3067
2.400533333e+08,-53.1571
2.404266667e+08,-73.7144
2.408000000e+08,-76.2716
2.411733333e+08,-73.3216
2.415466667e+08,-74.0363
2.419200000e+08,-74.528
2.422933333e+08,-59.1148
2.426666667e+08,-46.1117
2.430400000e+08,-50.6375
2.434133333e+08,-69.7623
2.437866667e+08,-72.2025
2.441600000e+08,-73.9558
2.445333333e+08,-72.6997
2.449066667e+08,-73.424
2.452800000e+08,-53.7671
2.456533333e+08,-54.9972
2.460266667e+08,-65.4146
2.464000000e+08,-68.7212
2.467733333e+08,-71.4266
2.471466667e+08,-71.9115
2.475200000e+08,-65.4512
2.478933333e+08,-48.9778
2.482666667e+08,-47.7872
2.486400000e+08,-56.5638
2.490133333e+08,-67.6326
2.493866667e+08,-72.2729
2.497600000e+08,-67.7657
2.501333333e+08,-67.2756
2.505066667e+08,-59.3026
2.508800000e+08,-53.966
2.512533333e+08,-57.5542
2.516266667e+08,-47.65
2.520000000e+08,-41.8404
2.523733333e+08,-51.5839
2.527466667e+08,-67.5145
2.531200000e+08,-61.9809
2.534933333e+08,-49.0232
2.538666667e+08,-49.9095
2.542400000e+08,-63.7094
2.546133333e+08,-67.4335
2.549866667e+08,-68.9216
2.553600000e+08,-69.7782
2.557333333e+08,-64.7411
2.561066667e+08,-55.126
2.564800000e+08,-54.5279
2.568533333e+08,-64.753
2.572266667e+08,-63.9379
2.576000000e+08,-65.0877
2.579733333e+08,-58.3176
2.583466667e+08,-61.733
2.587200000e+08,-54.6498
2.590933333e+08,-49.246
2.594666667e+08,-53.1723
2.598400000e+08,-66.0892
2.602133333e+08,-66.4623
2.605866667e+08,-76.8215
2.609600000e+08,-68.5793
2.613333333e+08,-63.9888
2.617066667e+08,-54.9804
2.620800000e+08,-55.6948
2.624533333e+08,-65.3997
2.628266667e+08,-67.2697
2.632000000e+08,-71.5342
2.635733333e+08,-58.0067
2.639466667e+08,-49.906
2.643200000e+08,-49.4196
2.646933333e+08,-47.7536
2.650666667e+08,-64.7215
2.654400000e+08,-67.8193
2.658133333e+08,-74.5102
2.661866667e+08,-70.8342
2.665600000e+08,-65.8634
2.669333333e+08,-61.3048
2.673066667e+08,-54.0686
2.676800000e+08,-62.7939
2.680533333e+08,-76.5797
2.684266667e+08,-74.5671
2.688000000e+08,-72.1102
2.691733333e+08,-72.872
2.695466667e+08,-62.6579
2.699200000e+08,-50.032
2.702933333e+08,-52.7972
2.706666667e+08,-73.5863
2.710400000e+08,-75.3789
2.714133333e+08,-70.9562
2.717866667e+08,-66.9501
2.721600000e+08,-66.9465
2.725333333e+08,-54.1435
2.729066667e+08,-54.2767
2.732800000e+08,-67.5216
2.736533333e+08,-69.3317
2.740266667e+08,-73.6562
2.744000000e+08,-65.2139
2.747733333e+08,-69.9743
2.751466667e+08,-51.6374
2.755200000e+08,-48.9738
2.758933333e+08,-49.5222
2.762666667e+08,-51.8811
2.766400000e+08,-67.2409
2.770133333e+08,-68.5925
2.773866667e+08,-68.0372
2.777600000e+08,-63.2778
2.781333333e+08,-55.672
2.785066667e+08,-59.2692
2.788800000e+08,-68.7893
2.792533333e+08,-68.9631
2.796266667e+08,-69.1984
2.800000000e+08,-65.5098

