Model,MDO3104
Firmware Version,1.30

Waveform Type,RF_FD
Point Format,Y
Horizontal Units,Hz
Horizontal Scale,2.8e+07
,
Sample Interval,373333
Record Length,751
Gating,0.133155792277% to 100.0%
Probe Attenuation,1
Vertical Units,dBm
Vertical Offset,0
Vertical Scale,10
Vertical Position,0
Center Frequency,1.4e+08
Span,2.8e+08
Reference Level,-15
Label,
FREQUENCY,FD NORM
0.000000000e+00,-58.577
3.733333333e+05,-67.4692
7.466666667e+05,-73.6316
1.120000000e+06,-73.8811
1.493333333e+06,-76.3417
1.866666667e+06,-74.4969
2.240000000e+06,-68.0625
2.613333333e+06,-65.0019
2.986666667e+06,-66.9558
3.360000000e+06,-61.0864
3.733333333e+06,-63.3541
4.106666667e+06,-65.101
4.480000000e+06,-64.6387
4.853333333e+06,-72.5885
5.226666667e+06,-74.3081
5.600000000e+06,-76.2307
5.973333333e+06,-74.2963
6.346666667e+06,-74.286
6.720000000e+06,-71.9878
7.093333333e+06,-72.1535
7.466666667e+06,-69.9767
7.840000000e+06,-66.1419
8.213333333e+06,-64.2599
8.586666667e+06,-68.6892
8.960000000e+06,-77.2806
9.333333333e+06,-69.4995
9.706666667e+06,-68.8374
1.008000000e+07,-73.0073
1.045333333e+07,-70.8698
1.082666667e+07,-74.9875
1.120000000e+07,-68.1999
1.157333333e+07,-69.1938
1.194666667e+07,-67.8853
1.232000000e+07,-67.6171
1.269333333e+07,-68.8322
1.306666667e+07,-70.7017
1.344000000e+07,-67.2117
1.381333333e+07,-67.5978
1.418666667e+07,-68.7114
1.456000000e+07,-73.7833
1.493333333e+07,-78.2152
1.530666667e+07,-78.0884
1.568000000e+07,-70.2924
1.605333333e+07,-66.343
1.642666667e+07,-67.2637
1.680000000e+07,-74.6709
1.717333333e+07,-72.2664
1.754666667e+07,-68.0393
1.792000000e+07,-70.0837
1.829333333e+07,-67.9454
1.866666667e+07,-70.0512
1.904000000e+07,-63.2167
1.941333333e+07,-64.3016
1.978666667e+07,-68.149
2.016000000e+07,-70.643
2.053333333e+07,-71.1136
2.090666667e+07,-71.2806
2.128000000e+07,-65.58
2.165333333e+07,-61.0299
2.202666667e+07,-60.3738
2.240000000e+07,-72.5517
2.277333333e+07,-70.7194
2.314666667e+07,-71.8825
2.352000000e+07,-70.8655
2.389333333e+07,-69.0605
2.426666667e+07,-70.6737
2.464000000e+07,-59.7321
2.501333333e+07,-54.8122
2.538666667e+07,-67.9359
2.576000000e+07,-67.2434
2.613333333e+07,-66.3897
2.650666667e+07,-72.4158
2.688000000e+07,-63.7081
2.725333333e+07,-60.8908
2.762666667e+07,-71.0656
2.800000000e+07,-70.1474
2.837333333e+07,-78.665
2.874666667e+07,-71.4232
2.912000000e+07,-69.3641
2.949333333e+07,-68.2912
2.986666667e+07,-59.0563
3.024000000e+07,-60.6253
3.061333333e+07,-78.5581
3.098666667e+07,-75.0275
3.136000000e+07,-78.4372
3.173333333e+07,-81.604
3.210666667e+07,-71.5936
3.248000000e+07,-60.6976
3.285333333e+07,-59.7003
3.322666667e+07,-71.0572
3.360000000e+07,-75.4456
3.397333333e+07,-78.7144
3.434666667e+07,-70.764
3.472000000e+07,-72.5027
3.509333333e+07,-61.9128
3.546666667e+07,-57.467
3.584000000e+07,-61.0128
3.621333333e+07,-61.6656
3.658666667e+07,-72.2856
3.696000000e+07,-73.6966
3.733333333e+07,-72.3491
3.770666667e+07,-72.1708
3.808000000e+07,-58.8863
3.845333333e+07,-62.4526
3.882666667e+07,-72.1382
3.920000000e+07,-70.0053
3.957333333e+07,-72.7256
3.994666667e+07,-71.7578
4.032000000e+07,-72.9978
4.069333333e+07,-57.2298
4.106666667e+07,-57.8406
4.144000000e+07,-72.368
4.181333333e+07,-75.6173
4.218666667e+07,-70.9642
4.256000000e+07,-72.3393
4.293333333e+07,-71.1358
4.330666667e+07,-62.0381
4.368000000e+07,-61.1173
4.405333333e+07,-66.1543
4.442666667e+07,-69.6896
4.480000000e+07,-76.6097
4.517333333e+07,-79.4097
4.554666667e+07,-74.3847
4.592000000e+07,-63.9032
4.629333333e+07,-58.2069
4.666666667e+07,-59.9329
4.704000000e+07,-70.2301
4.741333333e+07,-70.3085
4.778666667e+07,-66.5031
4.816000000e+07,-65.1134
4.853333333e+07,-73.16
4.890666667e+07,-59.0364
4.928000000e+07,-58.2107
4.965333333e+07,-77.3298
5.002666667e+07,-75.0528
5.040000000e+07,-73.8501
5.077333333e+07,-75.0916
5.114666667e+07,-73.8703
5.152000000e+07,-60.0431
5.189333333e+07,-55.0683
5.226666667e+07,-67.2305
5.264000000e+07,-73.8393
5.301333333e+07,-70.9376
5.338666667e+07,-74.6196
5.376000000e+07,-75.8006
5.413333333e+07,-64.7051
5.450666667e+07,-56.4564
5.488000000e+07,-60.221
5.525333333e+07,-75.4236
5.562666667e+07,-73.5305
5.600000000e+07,-75.7422
5.637333333e+07,-70.473
5.674666667e+07,-66.6478
5.712000000e+07,-52.8726
5.749333333e+07,-53.1411
5.786666667e+07,-69.6228
5.824000000e+07,-69.7577
5.861333333e+07,-73.5077
5.898666667e+07,-71.3677
5.936000000e+07,-73.3198
5.973333333e+07,-36.8742
6.010666667e+07,-34.5369
6.048000000e+07,-53.232
6.085333333e+07,-72.5082
6.122666667e+07,-70.7814
6.160000000e+07,-69.001
6.197333333e+07,-69.9765
6.234666667e+07,-60.4036
6.272000000e+07,-52.7295
6.309333333e+07,-60.2835
6.346666667e+07,-73.5257
6.384000000e+07,-71.5722
6.421333333e+07,-68.7175
6.458666667e+07,-71.3864
6.496000000e+07,-67.825
6.533333333e+07,-55.1479
6.570666667e+07,-58.0029
6.608000000e+07,-74.4742
6.645333333e+07,-71.843
6.682666667e+07,-71.9647
6.720000000e+07,-73.498
6.757333333e+07,-67.9052
6.794666667e+07,-55.7535
6.832000000e+07,-56.5783
6.869333333e+07,-70.907
6.906666667e+07,-71.8269
6.944000000e+07,-67.4304
6.981333333e+07,-73.646
7.018666667e+07,-68.9553
7.056000000e+07,-57.2209
7.093333333e+07,-55.7651
7.130666667e+07,-64.6557
7.168000000e+07,-73.9245
7.205333333e+07,-67.1403
7.242666667e+07,-71.5192
7.280000000e+07,-72.7016
7.317333333e+07,-66.0134
7.354666667e+07,-56.625
7.392000000e+07,-57.4143
7.429333333e+07,-65.485
7.466666667e+07,-67.6589
7.504000000e+07,-66.7832
7.541333333e+07,-66.8132
7.578666667e+07,-70.1474
7.616000000e+07,-57.4508
7.653333333e+07,-57.1044
7.690666667e+07,-71.2342
7.728000000e+07,-67.0655
7.765333333e+07,-68.3701
7.802666667e+07,-65.7673
7.840000000e+07,-73.3637
7.877333333e+07,-58.0221
7.914666667e+07,-54.1453
7.952000000e+07,-61.5311
7.989333333e+07,-70.2586
8.026666667e+07,-69.5485
8.064000000e+07,-76.9871
8.101333333e+07,-68.8178
8.138666667e+07,-64.6748
8.176000000e+07,-54.9641
8.213333333e+07,-56.6072
8.250666667e+07,-69.8654
8.288000000e+07,-72.7486
8.325333333e+07,-71.4563
8.362666667e+07,-62.8325
8.400000000e+07,-53.7647
8.437333333e+07,-54.098
8.474666667e+07,-53.3134
8.512000000e+07,-75.4643
8.549333333e+07,-75.9501
8.586666667e+07,-74.631
8.624000000e+07,-74.5891
8.661333333e+07,-72.0692
8.698666667e+07,-60.0634
8.736000000e+07,-55.1323
8.773333333e+07,-69.9323
8.810666667e+07,-70.4432
8.848000000e+07,-71.2149
8.885333333e+07,-66.209
8.922666667e+07,-71.3932
8.960000000e+07,-66.9763
8.997333333e+07,-57.5054
9.034666667e+07,-64.1861
9.072000000e+07,-83.2677
9.109333333e+07,-69.5332
9.146666667e+07,-68.9343
9.184000000e+07,-72.867
9.221333333e+07,-75.2258
9.258666667e+07,-54.8394
9.296000000e+07,-57.1143
9.333333333e+07,-72.6964
9.370666667e+07,-71.5079
9.408000000e+07,-76.2735
9.445333333e+07,-70.7909
9.482666667e+07,-66.7366
9.520000000e+07,-53.7243
9.557333333e+07,-52.9463
9.594666667e+07,-53.6792
9.632000000e+07,-54.6604
9.669333333e+07,-65.6167
9.706666667e+07,-74.1887
9.744000000e+07,-71.3278
9.781333333e+07,-58.7436
9.818666667e+07,-54.2878
9.856000000e+07,-62.0934
9.893333333e+07,-67.3974
9.930666667e+07,-67.757
9.968000000e+07,-69.7939
1.000533333e+08,-70.7069
1.004266667e+08,-67.8276
1.008000000e+08,-53.0836
1.011733333e+08,-54.8713
1.015466667e+08,-67.9722
1.019200000e+08,-68.3935
1.022933333e+08,-75.4128
1.026666667e+08,-68.3252
1.030400000e+08,-65.6347
1.034133333e+08,-54.8336
1.037866667e+08,-55.313
1.041600000e+08,-67.0426
1.045333333e+08,-74.5518
1.049066667e+08,-67.8511
1.052800000e+08,-64.1728
1.056533333e+08,-62.625
1.060266667e+08,-54.1704
1.064000000e+08,-52.4073
1.067733333e+08,-57.0739
1.071466667e+08,-63.764
1.075200000e+08,-65.2419
1.078933333e+08,-52.7362
1.082666667e+08,-54.597
1.086400000e+08,-62.1243
1.090133333e+08,-55.3712
1.093866667e+08,-56.9607
1.097600000e+08,-69.0269
1.101333333e+08,-74.8134
1.105066667e+08,-72.0498
1.108800000e+08,-72.1532
1.112533333e+08,-67.9478
1.116266667e+08,-52.7289
1.120000000e+08,-51.5318
1.123733333e+08,-66.9144
1.127466667e+08,-72.4318
1.131200000e+08,-73.2233
1.134933333e+08,-67.3114
1.138666667e+08,-69.8188
1.142400000e+08,-58.743
1.146133333e+08,-53.0233
1.149866667e+08,-61.5885
1.153600000e+08,-75.153
1.157333333e+08,-73.0131
1.161066667e+08,-73.2187
1.164800000e+08,-71.154
1.168533333e+08,-59.604
1.172266667e+08,-49.6413
1.176000000e+08,-53.9137
1.179733333e+08,-66.1046
1.183466667e+08,-71.5084
1.187200000e+08,-68.3284
1.190933333e+08,-73.3318
1.194666667e+08,-62.2866
1.198400000e+08,-36.2138
1.202133333e+08,-36.8984
1.205866667e+08,-68.2524
1.209600000e+08,-74.4833
1.213333333e+08,-72.8488
1.217066667e+08,-68.3724
1.220800000e+08,-72.1479
1.224533333e+08,-50.7941
1.228266667e+08,-49.1874
1.232000000e+08,-65.0808
1.235733333e+08,-72.2824
1.239466667e+08,-72.2705
1.243200000e+08,-72.3895
1.246933333e+08,-70.4905
1.250666667e+08,-59.7536
1.254400000e+08,-51.3005
1.258133333e+08,-58.4382
1.261866667e+08,-72.2521
1.265600000e+08,-71.1111
1.269333333e+08,-72.0882
1.273066667e+08,-68.7216
1.276800000e+08,-67.4474
1.280533333e+08,-50.1183
1.284266667e+08,-52.3484
1.288000000e+08,-66.8156
1.291733333e+08,-66.7285
1.295466667e+08,-68.5156
1.299200000e+08,-66.8224
1.302933333e+08,-68.0352
1.306666667e+08,-52.0149
1.310400000e+08,-52.1806
1.314133333e+08,-63.5409
1.317866667e+08,-51.8771
1.321600000e+08,-51.4764
1.325333333e+08,-66.0549
1.329066667e+08,-64.015
1.332800000e+08,-53.4862
1.336533333e+08,-51.0718
1.340266667e+08,-54.8937
1.344000000e+08,-64.183
1.347733333e+08,-69.4535
1.351466667e+08,-71.9798
1.355200000e+08,-69.652
1.358933333e+08,-59.6309
1.362666667e+08,-53.2424
1.366400000e+08,-53.9383
1.370133333e+08,-67.229
1.373866667e+08,-69.154
1.377600000e+08,-69.9348
1.381333333e+08,-66.9655
1.385066667e+08,-68.9233
1.388800000e+08,-51.4042
1.392533333e+08,-50.0935
1.396266667e+08,-68.3235
1.400000000e+08,-69.454
1.403733333e+08,-68.4724
1.407466667e+08,-64.8314
1.411200000e+08,-65.2234
1.414933333e+08,-56.1657
1.418666667e+08,-52.7153
1.422400000e+08,-64.0439
1.426133333e+08,-67.2737
1.429866667e+08,-74.2399
1.433600000e+08,-68.5109
1.437333333e+08,-64.4955
1.441066667e+08,-55.196
1.444800000e+08,-50.002
1.448533333e+08,-52.9225
1.452266667e+08,-68.4866
1.456000000e+08,-68.8809
1.459733333e+08,-70.2697
1.463466667e+08,-68.0985
1.467200000e+08,-69.3613
1.470933333e+08,-51.162
1.474666667e+08,-50.5145
1.478400000e+08,-71.5467
1.482133333e+08,-70.1208
1.485866667e+08,-69.2252
1.489600000e+08,-70.6051
1.493333333e+08,-79.8427
1.497066667e+08,-51.2438
1.500800000e+08,-47.971
1.504533333e+08,-62.4033
1.508266667e+08,-66.5292
1.512000000e+08,-70.3199
1.515733333e+08,-64.1347
1.519466667e+08,-65.8239
1.523200000e+08,-67.3057
1.526933333e+08,-52.7822
1.530666667e+08,-58.6683
1.534400000e+08,-67.2383
1.538133333e+08,-73.2286
1.541866667e+08,-74.2946
1.545600000e+08,-73.1984
1.549333333e+08,-67.579
1.553066667e+08,-48.4292
1.556800000e+08,-49.968
1.560533333e+08,-49.8512
1.564266667e+08,-59.8374
1.568000000e+08,-65.2595
1.571733333e+08,-68.4139
1.575466667e+08,-69.6669
1.579200000e+08,-52.2515
1.582933333e+08,-52.4921
1.586666667e+08,-63.1407
1.590400000e+08,-69.3069
1.594133333e+08,-68.4316
1.597866667e+08,-64.7127
1.601600000e+08,-68.5869
1.605333333e+08,-53.4004
1.609066667e+08,-49.9871
1.612800000e+08,-53.9203
1.616533333e+08,-64.4123
1.620266667e+08,-68.5059
1.624000000e+08,-67.2269
1.627733333e+08,-67.1304
1.631466667e+08,-61.7281
1.635200000e+08,-53.1943
1.638933333e+08,-55.4048
1.642666667e+08,-65.6071
1.646400000e+08,-64.2321
1.650133333e+08,-68.8639
1.653866667e+08,-68.9822
1.657600000e+08,-64.8856
1.661333333e+08,-50.4118
1.665066667e+08,-49.7579
1.668800000e+08,-62.9997
1.672533333e+08,-67.2915
1.676266667e+08,-63.8298
1.680000000e+08,-58.7631
1.683733333e+08,-64.8169
1.687466667e+08,-57.6342
1.691200000e+08,-52.7668
1.694933333e+08,-58.6836
1.698666667e+08,-67.7996
1.702400000e+08,-66.6881
1.706133333e+08,-67.0617
1.709866667e+08,-64.9518
1.713600000e+08,-58.2826
1.717333333e+08,-47.9627
1.721066667e+08,-49.101
1.724800000e+08,-63.821
1.728533333e+08,-65.6236
1.732266667e+08,-68.5785
1.736000000e+08,-67.0414
1.739733333e+08,-65.8454
1.743466667e+08,-53.9918
1.747200000e+08,-52.7978
1.750933333e+08,-71.9272
1.754666667e+08,-72.2148
1.758400000e+08,-66.384
1.762133333e+08,-66.7893
1.765866667e+08,-72.3561
1.769600000e+08,-53.387
1.773333333e+08,-47.1149
1.777066667e+08,-58.6502
1.780800000e+08,-70.2526
1.784533333e+08,-78.3354
1.788266667e+08,-69.4562
1.792000000e+08,-69.9592
1.795733333e+08,-54.1664
1.799466667e+08,-41.5194
1.803200000e+08,-46.4329
1.806933333e+08,-70.4692
1.810666667e+08,-68.8114
1.814400000e+08,-69.2516
1.818133333e+08,-73.7769
1.821866667e+08,-71.434
1.825600000e+08,-46.9682
1.829333333e+08,-48.1637
1.833066667e+08,-64.399
1.836800000e+08,-67.0566
1.840533333e+08,-68.3411
1.844266667e+08,-72.2779
1.848000000e+08,-63.1959
1.851733333e+08,-53.9292
1.855466667e+08,-52.1068
1.859200000e+08,-61.4986
1.862933333e+08,-70.7608
1.866666667e+08,-76.0855
1.870400000e+08,-66.2364
1.874133333e+08,-71.5927
1.877866667e+08,-55.2182
1.881600000e+08,-48.2305
1.885333333e+08,-54.1191
1.889066667e+08,-67.757
1.892800000e+08,-66.5801
1.896533333e+08,-67.2445
1.900266667e+08,-67.9235
1.904000000e+08,-63.4389
1.907733333e+08,-53.5933
1.911466667e+08,-56.0253
1.915200000e+08,-68.7275
1.918933333e+08,-56.3743
1.922666667e+08,-53.7572
1.926400000e+08,-64.744
1.930133333e+08,-63.8669
1.933866667e+08,-49.1959
1.937600000e+08,-49.1447
1.941333333e+08,-57.5753
1.945066667e+08,-67.0531
1.948800000e+08,-69.7459
1.952533333e+08,-64.9689
1.956266667e+08,-67.9509
1.960000000e+08,-55.8901
1.963733333e+08,-53.8825
1.967466667e+08,-57.612
1.971200000e+08,-65.3204
1.974933333e+08,-68.1469
1.978666667e+08,-65.7203
1.982400000e+08,-65.5234
1.986133333e+08,-59.5261
1.989866667e+08,-48.2162
1.993600000e+08,-48.202
1.997333333e+08,-62.6077
2.001066667e+08,-63.7331
2.004800000e+08,-65.1602
2.008533333e+08,-68.8529
2.012266667e+08,-67.1801
2.016000000e+08,-55.9539
2.019733333e+08,-53.7248
2.023466667e+08,-69.3531
2.027200000e+08,-64.5537
2.030933333e+08,-77.4303
2.034666667e+08,-69.9126
2.038400000e+08,-48.2896
2.042133333e+08,-48.7852
2.045866667e+08,-47.6025
2.049600000e+08,-57.6053
2.053333333e+08,-72.5894
2.057066667e+08,-68.6491
2.060800000e+08,-77.4353
2.064533333e+08,-68.2619
2.068266667e+08,-63.2913
2.072000000e+08,-53.0697
2.075733333e+08,-55.0299
2.079466667e+08,-64.2343
2.083200000e+08,-64.9713
2.086933333e+08,-69.126
2.090666667e+08,-68.6503
2.094400000e+08,-64.9959
2.098133333e+08,-46.8423
2.101866667e+08,-47.2028
2.105600000e+08,-64.7178
2.109333333e+08,-69.763
2.113066667e+08,-69.1942
2.116800000e+08,-73.2222
2.120533333e+08,-68.293
2.124266667e+08,-57.5229
2.128000000e+08,-53.2788
2.131733333e+08,-66.1553
2.135466667e+08,-67.4029
2.139200000e+08,-67.2352
2.142933333e+08,-64.0717
2.146666667e+08,-64.4579
2.150400000e+08,-53.8183
2.154133333e+08,-46.0244
2.157866667e+08,-52.4359
2.161600000e+08,-55.9715
2.165333333e+08,-66.4131
2.169066667e+08,-65.6065
2.172800000e+08,-68.0618
2.176533333e+08,-70.0028
2.180266667e+08,-53.1091
2.184000000e+08,-55.4894
2.187733333e+08,-71.6172
2.191466667e+08,-62.823
2.195200000e+08,-62.2341
2.198933333e+08,-66.4581
2.202666667e+08,-62.2092
2.206400000e+08,-48.3965
2.210133333e+08,-47.8178
2.213866667e+08,-56.7514
2.217600000e+08,-61.1326
2.221333333e+08,-63.2299
2.225066667e+08,-67.7232
2.228800000e+08,-71.659
2.232533333e+08,-57.3941
2.236266667e+08,-54.7451
2.240000000e+08,-56.9729
2.243733333e+08,-66.0184
2.247466667e+08,-67.1941
2.251200000e+08,-68.5656
2.254933333e+08,-72.7137
2.258666667e+08,-58.4531
2.262400000e+08,-49.1684
2.266133333e+08,-48.9311
2.269866667e+08,-62.5589
2.273600000e+08,-69.2496
2.277333333e+08,-51.2942
2.281066667e+08,-48.0521
2.284800000e+08,-61.5972
2.288533333e+08,-54.2165
2.292266667e+08,-53.4057
2.296000000e+08,-69.0609
2.299733333e+08,-66.3226
2.303466667e+08,-71.7133
2.307200000e+08,-68.6475
2.310933333e+08,-61.3312
2.314666667e+08,-52.8435
2.318400000e+08,-47.3431
2.322133333e+08,-54.1527
2.325866667e+08,-69.8091
2.329600000e+08,-67.481
2.333333333e+08,-68.4531
2.337066667e+08,-70.563
2.340800000e+08,-66.3978
2.344533333e+08,-53.4984
2.348266667e+08,-55.1117
2.352000000e+08,-73.3957
2.355733333e+08,-68.1744
2.359466667e+08,-67.3612
2.363200000e+08,-64.1922
2.366933333e+08,-74.3244
2.370666667e+08,-47.1046
2.374400000e+08,-45.9747
2.378133333e+08,-69.739
2.381866667e+08,-71.2076
2.385600000e+08,-69.4409
2.389333333e+08,-74.9604
2.393066667e+08,-74.0924
2.396800000e+08,-53.4053
2.400533333e+08,-44.981
2.404266667e+08,-47.1933
2.408000000e+08,-73.7796
2.411733333e+08,-70.4817
2.415466667e+08,-71.462
2.419200000e+08,-81.9189
2.422933333e+08,-61.1591
2.426666667e+08,-46.9983
2.430400000e+08,-51.4834
2.434133333e+08,-71.2607
2.437866667e+08,-73.6692
2.441600000e+08,-71.7448
2.445333333e+08,-71.9744
2.449066667e+08,-73.0143
2.452800000e+08,-53.4011
2.456533333e+08,-54.9183
2.460266667e+08,-73.339
2.464000000e+08,-73.954
2.467733333e+08,-68.5073
2.471466667e+08,-70.4533
2.475200000e+08,-66.0305
2.478933333e+08,-48.9991
2.482666667e+08,-47.9365
2.486400000e+08,-56.4299
2.490133333e+08,-67.4028
2.493866667e+08,-67.4585
2.497600000e+08,-67.0489
2.501333333e+08,-67.5673
2.505066667e+08,-59.0957
2.508800000e+08,-54.5541
2.512533333e+08,-58.6673
2.516266667e+08,-56.4706
2.520000000e+08,-47.8935
2.523733333e+08,-53.7166
2.527466667e+08,-70.5237
2.531200000e+08,-61.5482
2.534933333e+08,-48.8029
2.538666667e+08,-49.3586
2.542400000e+08,-63.9017
2.546133333e+08,-65.0581
2.549866667e+08,-68.1778
2.553600000e+08,-66.8956
2.557333333e+08,-66.6135
2.561066667e+08,-55.5909
2.564800000e+08,-55.1634
2.568533333e+08,-66.1447
2.572266667e+08,-69.7755
2.576000000e+08,-75.227
2.579733333e+08,-70.9896
2.583466667e+08,-67.121
2.587200000e+08,-53.2369
2.590933333e+08,-48.6143
2.594666667e+08,-52.2024
2.598400000e+08,-66.7063
2.602133333e+08,-68.363
2.605866667e+08,-71.6845
2.609600000e+08,-70.0463
2.613333333e+08,-67.0754
2.617066667e+08,-54.3134
2.620800000e+08,-54.4172
2.624533333e+08,-72.502
2.628266667e+08,-69.0795
2.632000000e+08,-74.8016
2.635733333e+08,-65.4058
2.639466667e+08,-56.6929
2.643200000e+08,-48.231
2.646933333e+08,-47.4316
2.650666667e+08,-66.2314
2.654400000e+08,-73.068
2.658133333e+08,-70.0266
2.661866667e+08,-67.4619
2.665600000e+08,-67.3312
2.669333333e+08,-58.5678
2.673066667e+08,-53.3082
2.676800000e+08,-62.547
2.680533333e+08,-77.3194
2.684266667e+08,-70.7056
2.688000000e+08,-74.2025
2.691733333e+08,-74.0804
2.695466667e+08,-62.0265
2.699200000e+08,-45.7921
2.702933333e+08,-49.2672
2.706666667e+08,-71.3583
2.710400000e+08,-73.2945
2.714133333e+08,-70.0821
2.717866667e+08,-75.3796
2.721600000e+08,-69.3165
2.725333333e+08,-53.4173
2.729066667e+08,-53.8812
2.732800000e+08,-73.6004
2.736533333e+08,-73.6482
2.740266667e+08,-72.2846
2.744000000e+08,-69.842
2.747733333e+08,-66.7472
2.751466667e+08,-50.5827
2.755200000e+08,-48.4858
2.758933333e+08,-46.9602
2.762666667e+08,-49.9123
2.766400000e+08,-66.9709
2.770133333e+08,-70.8763
2.773866667e+08,-72.1715
2.777600000e+08,-63.8357
2.781333333e+08,-55.0265
2.785066667e+08,-59.4093
2.788800000e+08,-67.2636
2.792533333e+08,-72.6061
2.796266667e+08,-68.3994
2.800000000e+08,-64.4129

